#  E (eV)   dos(E)     Int dos(E) EFermi =    1.055 eV
 -18.905  0.0000E+00  0.0000E+00
 -18.895  0.2984E-01  0.1492E-03
 -18.885  0.5969E-01  0.5969E-03
 -18.875  0.8953E-01  0.1343E-02
 -18.865  0.1194E+00  0.2388E-02
 -18.855  0.1492E+00  0.3731E-02
 -18.845  0.1791E+00  0.5372E-02
 -18.835  0.2089E+00  0.7312E-02
 -18.825  0.2388E+00  0.9550E-02
 -18.815  0.2686E+00  0.1209E-01
 -18.805  0.2984E+00  0.1492E-01
 -18.795  0.3283E+00  0.1806E-01
 -18.785  0.3581E+00  0.2149E-01
 -18.775  0.3880E+00  0.2522E-01
 -18.765  0.4178E+00  0.2925E-01
 -18.755  0.4477E+00  0.3357E-01
 -18.745  0.4775E+00  0.3820E-01
 -18.735  0.2497E+00  0.4239E-01
 -18.725  0.2522E+00  0.4490E-01
 -18.715  0.2548E+00  0.4743E-01
 -18.705  0.2573E+00  0.4999E-01
 -18.695  0.2598E+00  0.5258E-01
 -18.685  0.2624E+00  0.5519E-01
 -18.675  0.2649E+00  0.5783E-01
 -18.665  0.2675E+00  0.6049E-01
 -18.655  0.2700E+00  0.6318E-01
 -18.645  0.2725E+00  0.6589E-01
 -18.635  0.2751E+00  0.6863E-01
 -18.625  0.2776E+00  0.7139E-01
 -18.615  0.2802E+00  0.7418E-01
 -18.605  0.2827E+00  0.7699E-01
 -18.595  0.2852E+00  0.7983E-01
 -18.585  0.2878E+00  0.8270E-01
 -18.575  0.2903E+00  0.8559E-01
 -18.565  0.2929E+00  0.8851E-01
 -18.555  0.2954E+00  0.9145E-01
 -18.545  0.2980E+00  0.9441E-01
 -18.535  0.3005E+00  0.9741E-01
 -18.525  0.3030E+00  0.1004E+00
 -18.515  0.3056E+00  0.1035E+00
 -18.505  0.3081E+00  0.1065E+00
 -18.495  0.3107E+00  0.1096E+00
 -18.485  0.3132E+00  0.1127E+00
 -18.475  0.3157E+00  0.1159E+00
 -18.465  0.3183E+00  0.1191E+00
 -18.455  0.3208E+00  0.1223E+00
 -18.445  0.3234E+00  0.1255E+00
 -18.435  0.3259E+00  0.1287E+00
 -18.425  0.3285E+00  0.1320E+00
 -18.415  0.3310E+00  0.1353E+00
 -18.405  0.3335E+00  0.1386E+00
 -18.395  0.3316E+00  0.1419E+00
 -18.385  0.3287E+00  0.1452E+00
 -18.375  0.3258E+00  0.1485E+00
 -18.365  0.3228E+00  0.1518E+00
 -18.355  0.3199E+00  0.1550E+00
 -18.345  0.3170E+00  0.1582E+00
 -18.335  0.3140E+00  0.1613E+00
 -18.325  0.3111E+00  0.1644E+00
 -18.315  0.3082E+00  0.1675E+00
 -18.305  0.3052E+00  0.1706E+00
 -18.295  0.3023E+00  0.1736E+00
 -18.285  0.2994E+00  0.1767E+00
 -18.275  0.2964E+00  0.1796E+00
 -18.265  0.2935E+00  0.1826E+00
 -18.255  0.2906E+00  0.1855E+00
 -18.245  0.2876E+00  0.1884E+00
 -18.235  0.2862E+00  0.1913E+00
 -18.225  0.2871E+00  0.1941E+00
 -18.215  0.2879E+00  0.1970E+00
 -18.205  0.2888E+00  0.1999E+00
 -18.195  0.2897E+00  0.2028E+00
 -18.185  0.2906E+00  0.2057E+00
 -18.175  0.2915E+00  0.2086E+00
 -18.165  0.2923E+00  0.2115E+00
 -18.155  0.2932E+00  0.2144E+00
 -18.145  0.2941E+00  0.2174E+00
 -18.135  0.2950E+00  0.2203E+00
 -18.125  0.2959E+00  0.2233E+00
 -18.115  0.2968E+00  0.2262E+00
 -18.105  0.2976E+00  0.2292E+00
 -18.095  0.2985E+00  0.2322E+00
 -18.085  0.2994E+00  0.2352E+00
 -18.075  0.3003E+00  0.2382E+00
 -18.065  0.3012E+00  0.2412E+00
 -18.055  0.3020E+00  0.2442E+00
 -18.045  0.3029E+00  0.2472E+00
 -18.035  0.3038E+00  0.2503E+00
 -18.025  0.3047E+00  0.2533E+00
 -18.015  0.3056E+00  0.2563E+00
 -18.005  0.3065E+00  0.2594E+00
 -17.995  0.3073E+00  0.2625E+00
 -17.985  0.3082E+00  0.2656E+00
 -17.975  0.3091E+00  0.2686E+00
 -17.965  0.3100E+00  0.2717E+00
 -17.955  0.3109E+00  0.2748E+00
 -17.945  0.3117E+00  0.2780E+00
 -17.935  0.3126E+00  0.2811E+00
 -17.925  0.3135E+00  0.2842E+00
 -17.915  0.3144E+00  0.2873E+00
 -17.905  0.3153E+00  0.2905E+00
 -17.895  0.3162E+00  0.2937E+00
 -17.885  0.3170E+00  0.2968E+00
 -17.875  0.3179E+00  0.3000E+00
 -17.865  0.3188E+00  0.3032E+00
 -17.855  0.3197E+00  0.3064E+00
 -17.845  0.3206E+00  0.3096E+00
 -17.835  0.3214E+00  0.3128E+00
 -17.825  0.3223E+00  0.3160E+00
 -17.815  0.3232E+00  0.3192E+00
 -17.805  0.3241E+00  0.3225E+00
 -17.795  0.3250E+00  0.3257E+00
 -17.785  0.3259E+00  0.3290E+00
 -17.775  0.3267E+00  0.3322E+00
 -17.765  0.3276E+00  0.3355E+00
 -17.755  0.3285E+00  0.3388E+00
 -17.745  0.3040E+00  0.3420E+00
 -17.735  0.3039E+00  0.3451E+00
 -17.725  0.3038E+00  0.3481E+00
 -17.715  0.3036E+00  0.3511E+00
 -17.705  0.3035E+00  0.3542E+00
 -17.695  0.3034E+00  0.3572E+00
 -17.685  0.3033E+00  0.3602E+00
 -17.675  0.3031E+00  0.3633E+00
 -17.665  0.3030E+00  0.3663E+00
 -17.655  0.3029E+00  0.3693E+00
 -17.645  0.3028E+00  0.3724E+00
 -17.635  0.3027E+00  0.3754E+00
 -17.625  0.3025E+00  0.3784E+00
 -17.615  0.3024E+00  0.3814E+00
 -17.605  0.3023E+00  0.3845E+00
 -17.595  0.3022E+00  0.3875E+00
 -17.585  0.3020E+00  0.3905E+00
 -17.575  0.3019E+00  0.3935E+00
 -17.565  0.3018E+00  0.3965E+00
 -17.555  0.3017E+00  0.3996E+00
 -17.545  0.3016E+00  0.4026E+00
 -17.535  0.3014E+00  0.4056E+00
 -17.525  0.3013E+00  0.4086E+00
 -17.515  0.3012E+00  0.4116E+00
 -17.505  0.3011E+00  0.4146E+00
 -17.495  0.3009E+00  0.4176E+00
 -17.485  0.3008E+00  0.4206E+00
 -17.475  0.3007E+00  0.4236E+00
 -17.465  0.3006E+00  0.4267E+00
 -17.455  0.3005E+00  0.4297E+00
 -17.445  0.3003E+00  0.4327E+00
 -17.435  0.3002E+00  0.4357E+00
 -17.425  0.3001E+00  0.4387E+00
 -17.415  0.3000E+00  0.4417E+00
 -17.405  0.3004E+00  0.4447E+00
 -17.395  0.3009E+00  0.4477E+00
 -17.385  0.3014E+00  0.4507E+00
 -17.375  0.3019E+00  0.4537E+00
 -17.365  0.3023E+00  0.4567E+00
 -17.355  0.3028E+00  0.4598E+00
 -17.345  0.3033E+00  0.4628E+00
 -17.335  0.3038E+00  0.4658E+00
 -17.325  0.3042E+00  0.4689E+00
 -17.315  0.3047E+00  0.4719E+00
 -17.305  0.3052E+00  0.4750E+00
 -17.295  0.3057E+00  0.4780E+00
 -17.285  0.3062E+00  0.4811E+00
 -17.275  0.3066E+00  0.4841E+00
 -17.265  0.3071E+00  0.4872E+00
 -17.255  0.3076E+00  0.4903E+00
 -17.245  0.3081E+00  0.4934E+00
 -17.235  0.3086E+00  0.4964E+00
 -17.225  0.3090E+00  0.4995E+00
 -17.215  0.3095E+00  0.5026E+00
 -17.205  0.3100E+00  0.5057E+00
 -17.195  0.3105E+00  0.5088E+00
 -17.185  0.3110E+00  0.5119E+00
 -17.175  0.3114E+00  0.5150E+00
 -17.165  0.3119E+00  0.5182E+00
 -17.155  0.3124E+00  0.5213E+00
 -17.145  0.3129E+00  0.5244E+00
 -17.135  0.3134E+00  0.5275E+00
 -17.125  0.3138E+00  0.5307E+00
 -17.115  0.3143E+00  0.5338E+00
 -17.105  0.3148E+00  0.5370E+00
 -17.095  0.3153E+00  0.5401E+00
 -17.085  0.3157E+00  0.5433E+00
 -17.075  0.3162E+00  0.5464E+00
 -17.065  0.3167E+00  0.5496E+00
 -17.055  0.3172E+00  0.5528E+00
 -17.045  0.3177E+00  0.5559E+00
 -17.035  0.3181E+00  0.5591E+00
 -17.025  0.3186E+00  0.5623E+00
 -17.015  0.3191E+00  0.5655E+00
 -17.005  0.3196E+00  0.5687E+00
 -16.995  0.3201E+00  0.5719E+00
 -16.985  0.3205E+00  0.5751E+00
 -16.975  0.3210E+00  0.5783E+00
 -16.965  0.3215E+00  0.5815E+00
 -16.955  0.3220E+00  0.5847E+00
 -16.945  0.3225E+00  0.5879E+00
 -16.935  0.3229E+00  0.5912E+00
 -16.925  0.3228E+00  0.5944E+00
 -16.915  0.3218E+00  0.5976E+00
 -16.905  0.3207E+00  0.6008E+00
 -16.895  0.3197E+00  0.6040E+00
 -16.885  0.3186E+00  0.6072E+00
 -16.875  0.3175E+00  0.6104E+00
 -16.865  0.3165E+00  0.6136E+00
 -16.855  0.3154E+00  0.6167E+00
 -16.845  0.3144E+00  0.6199E+00
 -16.835  0.3133E+00  0.6230E+00
 -16.825  0.3123E+00  0.6261E+00
 -16.815  0.3112E+00  0.6293E+00
 -16.805  0.3102E+00  0.6324E+00
 -16.795  0.3091E+00  0.6355E+00
 -16.785  0.3081E+00  0.6386E+00
 -16.775  0.3070E+00  0.6416E+00
 -16.765  0.3063E+00  0.6447E+00
 -16.755  0.3065E+00  0.6478E+00
 -16.745  0.3066E+00  0.6508E+00
 -16.735  0.3067E+00  0.6539E+00
 -16.725  0.3069E+00  0.6570E+00
 -16.715  0.3070E+00  0.6600E+00
 -16.705  0.3071E+00  0.6631E+00
 -16.695  0.3072E+00  0.6662E+00
 -16.685  0.3074E+00  0.6692E+00
 -16.675  0.3075E+00  0.6723E+00
 -16.665  0.3076E+00  0.6754E+00
 -16.655  0.3077E+00  0.6785E+00
 -16.645  0.3079E+00  0.6815E+00
 -16.635  0.3080E+00  0.6846E+00
 -16.625  0.3081E+00  0.6877E+00
 -16.615  0.3083E+00  0.6908E+00
 -16.605  0.3084E+00  0.6939E+00
 -16.595  0.3085E+00  0.6970E+00
 -16.585  0.3086E+00  0.7000E+00
 -16.575  0.3088E+00  0.7031E+00
 -16.565  0.3089E+00  0.7062E+00
 -16.555  0.3090E+00  0.7093E+00
 -16.545  0.3091E+00  0.7124E+00
 -16.535  0.3093E+00  0.7155E+00
 -16.525  0.3094E+00  0.7186E+00
 -16.515  0.3095E+00  0.7217E+00
 -16.505  0.3097E+00  0.7248E+00
 -16.495  0.3098E+00  0.7279E+00
 -16.485  0.3099E+00  0.7310E+00
 -16.475  0.3100E+00  0.7341E+00
 -16.465  0.3102E+00  0.7372E+00
 -16.455  0.3103E+00  0.7403E+00
 -16.445  0.3104E+00  0.7434E+00
 -16.435  0.3105E+00  0.7465E+00
 -16.425  0.3107E+00  0.7496E+00
 -16.415  0.3108E+00  0.7527E+00
 -16.405  0.3109E+00  0.7558E+00
 -16.395  0.3110E+00  0.7589E+00
 -16.385  0.3112E+00  0.7620E+00
 -16.375  0.3113E+00  0.7651E+00
 -16.365  0.3114E+00  0.7682E+00
 -16.355  0.3116E+00  0.7714E+00
 -16.345  0.3117E+00  0.7745E+00
 -16.335  0.3118E+00  0.7776E+00
 -16.325  0.3119E+00  0.7807E+00
 -16.315  0.3121E+00  0.7838E+00
 -16.305  0.3122E+00  0.7870E+00
 -16.295  0.3123E+00  0.7901E+00
 -16.285  0.3124E+00  0.7932E+00
 -16.275  0.3127E+00  0.7963E+00
 -16.265  0.3130E+00  0.7995E+00
 -16.255  0.3133E+00  0.8026E+00
 -16.245  0.3136E+00  0.8057E+00
 -16.235  0.3140E+00  0.8089E+00
 -16.225  0.3143E+00  0.8120E+00
 -16.215  0.3146E+00  0.8151E+00
 -16.205  0.3149E+00  0.8183E+00
 -16.195  0.3152E+00  0.8214E+00
 -16.185  0.3155E+00  0.8246E+00
 -16.175  0.3158E+00  0.8278E+00
 -16.165  0.3162E+00  0.8309E+00
 -16.155  0.3165E+00  0.8341E+00
 -16.145  0.3168E+00  0.8372E+00
 -16.135  0.3171E+00  0.8404E+00
 -16.125  0.3174E+00  0.8436E+00
 -16.115  0.3177E+00  0.8468E+00
 -16.105  0.3180E+00  0.8499E+00
 -16.095  0.3183E+00  0.8531E+00
 -16.085  0.3187E+00  0.8563E+00
 -16.075  0.3190E+00  0.8595E+00
 -16.065  0.3193E+00  0.8627E+00
 -16.055  0.3196E+00  0.8659E+00
 -16.045  0.3199E+00  0.8691E+00
 -16.035  0.3202E+00  0.8723E+00
 -16.025  0.3205E+00  0.8755E+00
 -16.015  0.3209E+00  0.8787E+00
 -16.005  0.3212E+00  0.8819E+00
 -15.995  0.3215E+00  0.8851E+00
 -15.985  0.3218E+00  0.8883E+00
 -15.975  0.3221E+00  0.8915E+00
 -15.965  0.3224E+00  0.8948E+00
 -15.955  0.3227E+00  0.8980E+00
 -15.945  0.3230E+00  0.9012E+00
 -15.935  0.3234E+00  0.9045E+00
 -15.925  0.3237E+00  0.9077E+00
 -15.915  0.3240E+00  0.9109E+00
 -15.905  0.3243E+00  0.9142E+00
 -15.895  0.3246E+00  0.9174E+00
 -15.885  0.3249E+00  0.9207E+00
 -15.875  0.3252E+00  0.9239E+00
 -15.865  0.3255E+00  0.9272E+00
 -15.855  0.3259E+00  0.9304E+00
 -15.845  0.3262E+00  0.9337E+00
 -15.835  0.3265E+00  0.9370E+00
 -15.825  0.3268E+00  0.9402E+00
 -15.815  0.3271E+00  0.9435E+00
 -15.805  0.3197E+00  0.9467E+00
 -15.795  0.3197E+00  0.9499E+00
 -15.785  0.3196E+00  0.9531E+00
 -15.775  0.3195E+00  0.9563E+00
 -15.765  0.3194E+00  0.9595E+00
 -15.755  0.3194E+00  0.9627E+00
 -15.745  0.3193E+00  0.9659E+00
 -15.735  0.3192E+00  0.9691E+00
 -15.725  0.3191E+00  0.9723E+00
 -15.715  0.3190E+00  0.9755E+00
 -15.705  0.3190E+00  0.9787E+00
 -15.695  0.3189E+00  0.9819E+00
 -15.685  0.3188E+00  0.9851E+00
 -15.675  0.3187E+00  0.9882E+00
 -15.665  0.3186E+00  0.9914E+00
 -15.655  0.3186E+00  0.9946E+00
 -15.645  0.3185E+00  0.9978E+00
 -15.635  0.3184E+00  0.1001E+01
 -15.625  0.3183E+00  0.1004E+01
 -15.615  0.3183E+00  0.1007E+01
 -15.605  0.3182E+00  0.1011E+01
 -15.595  0.3181E+00  0.1014E+01
 -15.585  0.3180E+00  0.1017E+01
 -15.575  0.3179E+00  0.1020E+01
 -15.565  0.3179E+00  0.1023E+01
 -15.555  0.3178E+00  0.1026E+01
 -15.545  0.3177E+00  0.1030E+01
 -15.535  0.3176E+00  0.1033E+01
 -15.525  0.3176E+00  0.1036E+01
 -15.515  0.3175E+00  0.1039E+01
 -15.505  0.3174E+00  0.1042E+01
 -15.495  0.3173E+00  0.1045E+01
 -15.485  0.3174E+00  0.1049E+01
 -15.475  0.3177E+00  0.1052E+01
 -15.465  0.3179E+00  0.1055E+01
 -15.455  0.3181E+00  0.1058E+01
 -15.445  0.3184E+00  0.1061E+01
 -15.435  0.3186E+00  0.1065E+01
 -15.425  0.3189E+00  0.1068E+01
 -15.415  0.3191E+00  0.1071E+01
 -15.405  0.3194E+00  0.1074E+01
 -15.395  0.3196E+00  0.1077E+01
 -15.385  0.3199E+00  0.1081E+01
 -15.375  0.3201E+00  0.1084E+01
 -15.365  0.3204E+00  0.1087E+01
 -15.355  0.3206E+00  0.1090E+01
 -15.345  0.3209E+00  0.1093E+01
 -15.335  0.3211E+00  0.1097E+01
 -15.325  0.3214E+00  0.1100E+01
 -15.315  0.3216E+00  0.1103E+01
 -15.305  0.3219E+00  0.1106E+01
 -15.295  0.3221E+00  0.1109E+01
 -15.285  0.3224E+00  0.1113E+01
 -15.275  0.3226E+00  0.1116E+01
 -15.265  0.3229E+00  0.1119E+01
 -15.255  0.3231E+00  0.1122E+01
 -15.245  0.3234E+00  0.1126E+01
 -15.235  0.3236E+00  0.1129E+01
 -15.225  0.3239E+00  0.1132E+01
 -15.215  0.3241E+00  0.1135E+01
 -15.205  0.3244E+00  0.1139E+01
 -15.195  0.3246E+00  0.1142E+01
 -15.185  0.3249E+00  0.1145E+01
 -15.175  0.3251E+00  0.1148E+01
 -15.165  0.3254E+00  0.1152E+01
 -15.155  0.3256E+00  0.1155E+01
 -15.145  0.3259E+00  0.1158E+01
 -15.135  0.3261E+00  0.1161E+01
 -15.125  0.3263E+00  0.1165E+01
 -15.115  0.3266E+00  0.1168E+01
 -15.105  0.3268E+00  0.1171E+01
 -15.095  0.3271E+00  0.1174E+01
 -15.085  0.3273E+00  0.1178E+01
 -15.075  0.3276E+00  0.1181E+01
 -15.065  0.3278E+00  0.1184E+01
 -15.055  0.3281E+00  0.1187E+01
 -15.045  0.3283E+00  0.1191E+01
 -15.035  0.3286E+00  0.1194E+01
 -15.025  0.3288E+00  0.1197E+01
 -15.015  0.3291E+00  0.1201E+01
 -15.005  0.3293E+00  0.1204E+01
 -14.995  0.3296E+00  0.1207E+01
 -14.985  0.3298E+00  0.1210E+01
 -14.975  0.3301E+00  0.1214E+01
 -14.965  0.3303E+00  0.1217E+01
 -14.955  0.3306E+00  0.1220E+01
 -14.945  0.3308E+00  0.1224E+01
 -14.935  0.3311E+00  0.1227E+01
 -14.925  0.3313E+00  0.1230E+01
 -14.915  0.3316E+00  0.1234E+01
 -14.905  0.3318E+00  0.1237E+01
 -14.895  0.3321E+00  0.1240E+01
 -14.885  0.3323E+00  0.1244E+01
 -14.875  0.3326E+00  0.1247E+01
 -14.865  0.3329E+00  0.1250E+01
 -14.855  0.3334E+00  0.1254E+01
 -14.845  0.3340E+00  0.1257E+01
 -14.835  0.3346E+00  0.1260E+01
 -14.825  0.3352E+00  0.1264E+01
 -14.815  0.3358E+00  0.1267E+01
 -14.805  0.3364E+00  0.1270E+01
 -14.795  0.3370E+00  0.1274E+01
 -14.785  0.3376E+00  0.1277E+01
 -14.775  0.3382E+00  0.1280E+01
 -14.765  0.3388E+00  0.1284E+01
 -14.755  0.3393E+00  0.1287E+01
 -14.745  0.3399E+00  0.1291E+01
 -14.735  0.3405E+00  0.1294E+01
 -14.725  0.3411E+00  0.1297E+01
 -14.715  0.3417E+00  0.1301E+01
 -14.705  0.3423E+00  0.1304E+01
 -14.695  0.3429E+00  0.1308E+01
 -14.685  0.3435E+00  0.1311E+01
 -14.675  0.3441E+00  0.1315E+01
 -14.665  0.3447E+00  0.1318E+01
 -14.655  0.3453E+00  0.1321E+01
 -14.645  0.3458E+00  0.1325E+01
 -14.635  0.3464E+00  0.1328E+01
 -14.625  0.3470E+00  0.1332E+01
 -14.615  0.3476E+00  0.1335E+01
 -14.605  0.3482E+00  0.1339E+01
 -14.595  0.3488E+00  0.1342E+01
 -14.585  0.3494E+00  0.1346E+01
 -14.575  0.3500E+00  0.1349E+01
 -14.565  0.3506E+00  0.1353E+01
 -14.555  0.3511E+00  0.1356E+01
 -14.545  0.3515E+00  0.1360E+01
 -14.535  0.3518E+00  0.1363E+01
 -14.525  0.3521E+00  0.1367E+01
 -14.515  0.3525E+00  0.1370E+01
 -14.505  0.3528E+00  0.1374E+01
 -14.495  0.3531E+00  0.1377E+01
 -14.485  0.3534E+00  0.1381E+01
 -14.475  0.3538E+00  0.1384E+01
 -14.465  0.3541E+00  0.1388E+01
 -14.455  0.3544E+00  0.1392E+01
 -14.445  0.3548E+00  0.1395E+01
 -14.435  0.3551E+00  0.1399E+01
 -14.425  0.3554E+00  0.1402E+01
 -14.415  0.3557E+00  0.1406E+01
 -14.405  0.3568E+00  0.1409E+01
 -14.395  0.3582E+00  0.1413E+01
 -14.385  0.3596E+00  0.1416E+01
 -14.375  0.3609E+00  0.1420E+01
 -14.365  0.3623E+00  0.1424E+01
 -14.355  0.3636E+00  0.1427E+01
 -14.345  0.3650E+00  0.1431E+01
 -14.335  0.3663E+00  0.1435E+01
 -14.325  0.3677E+00  0.1438E+01
 -14.315  0.3690E+00  0.1442E+01
 -14.305  0.3704E+00  0.1446E+01
 -14.295  0.3717E+00  0.1449E+01
 -14.285  0.3731E+00  0.1453E+01
 -14.275  0.3745E+00  0.1457E+01
 -14.265  0.3758E+00  0.1461E+01
 -14.255  0.3772E+00  0.1464E+01
 -14.245  0.3785E+00  0.1468E+01
 -14.235  0.3799E+00  0.1472E+01
 -14.225  0.3812E+00  0.1476E+01
 -14.215  0.3826E+00  0.1480E+01
 -14.205  0.3839E+00  0.1483E+01
 -14.195  0.3853E+00  0.1487E+01
 -14.185  0.3866E+00  0.1491E+01
 -14.175  0.3880E+00  0.1495E+01
 -14.165  0.3894E+00  0.1499E+01
 -14.155  0.3907E+00  0.1503E+01
 -14.145  0.3921E+00  0.1507E+01
 -14.135  0.3934E+00  0.1511E+01
 -14.125  0.3948E+00  0.1515E+01
 -14.115  0.3961E+00  0.1518E+01
 -14.105  0.3975E+00  0.1522E+01
 -14.095  0.3988E+00  0.1526E+01
 -14.085  0.4002E+00  0.1530E+01
 -14.075  0.4015E+00  0.1534E+01
 -14.065  0.4029E+00  0.1538E+01
 -14.055  0.4043E+00  0.1542E+01
 -14.045  0.4056E+00  0.1547E+01
 -14.035  0.4070E+00  0.1551E+01
 -14.025  0.4083E+00  0.1555E+01
 -14.015  0.4097E+00  0.1559E+01
 -14.005  0.4110E+00  0.1563E+01
 -13.995  0.4124E+00  0.1567E+01
 -13.985  0.7190E+00  0.1574E+01
 -13.975  0.7076E+00  0.1581E+01
 -13.965  0.6962E+00  0.1588E+01
 -13.955  0.6848E+00  0.1595E+01
 -13.945  0.6734E+00  0.1602E+01
 -13.935  0.6621E+00  0.1609E+01
 -13.925  0.6507E+00  0.1615E+01
 -13.915  0.6393E+00  0.1622E+01
 -13.905  0.6279E+00  0.1628E+01
 -13.895  0.6165E+00  0.1634E+01
 -13.885  0.6052E+00  0.1640E+01
 -13.875  0.5938E+00  0.1646E+01
 -13.865  0.5824E+00  0.1652E+01
 -13.855  0.5710E+00  0.1658E+01
 -13.845  0.5596E+00  0.1664E+01
 -13.835  0.5483E+00  0.1669E+01
 -13.825  0.5369E+00  0.1675E+01
 -13.815  0.5255E+00  0.1680E+01
 -13.805  0.5141E+00  0.1685E+01
 -13.795  0.5027E+00  0.1690E+01
 -13.785  0.4914E+00  0.1695E+01
 -13.775  0.4800E+00  0.1700E+01
 -13.765  0.4686E+00  0.1705E+01
 -13.755  0.4572E+00  0.1709E+01
 -13.745  0.4458E+00  0.1714E+01
 -13.735  0.4344E+00  0.1718E+01
 -13.725  0.4231E+00  0.1723E+01
 -13.715  0.4117E+00  0.1727E+01
 -13.705  0.4003E+00  0.1731E+01
 -13.695  0.3889E+00  0.1735E+01
 -13.685  0.3775E+00  0.1739E+01
 -13.675  0.3662E+00  0.1742E+01
 -13.665  0.3548E+00  0.1746E+01
 -13.655  0.3434E+00  0.1750E+01
 -13.645  0.3320E+00  0.1753E+01
 -13.635  0.3206E+00  0.1756E+01
 -13.625  0.3093E+00  0.1759E+01
 -13.615  0.2979E+00  0.1762E+01
 -13.605  0.2902E+00  0.1765E+01
 -13.595  0.2879E+00  0.1768E+01
 -13.585  0.2855E+00  0.1771E+01
 -13.575  0.2832E+00  0.1774E+01
 -13.565  0.2808E+00  0.1777E+01
 -13.555  0.2785E+00  0.1779E+01
 -13.545  0.2761E+00  0.1782E+01
 -13.535  0.2738E+00  0.1785E+01
 -13.525  0.2714E+00  0.1788E+01
 -13.515  0.2691E+00  0.1790E+01
 -13.505  0.2667E+00  0.1793E+01
 -13.495  0.2644E+00  0.1796E+01
 -13.485  0.2620E+00  0.1798E+01
 -13.475  0.2597E+00  0.1801E+01
 -13.465  0.2573E+00  0.1804E+01
 -13.455  0.2550E+00  0.1806E+01
 -13.445  0.2526E+00  0.1809E+01
 -13.435  0.2503E+00  0.1811E+01
 -13.425  0.2479E+00  0.1814E+01
 -13.415  0.2456E+00  0.1816E+01
 -13.405  0.2432E+00  0.1819E+01
 -13.395  0.2409E+00  0.1821E+01
 -13.385  0.2385E+00  0.1823E+01
 -13.375  0.2362E+00  0.1826E+01
 -13.365  0.2339E+00  0.1828E+01
 -13.355  0.2315E+00  0.1830E+01
 -13.345  0.2292E+00  0.1833E+01
 -13.335  0.2268E+00  0.1835E+01
 -13.325  0.2245E+00  0.1837E+01
 -13.315  0.2221E+00  0.1840E+01
 -13.305  0.2198E+00  0.1842E+01
 -13.295  0.2174E+00  0.1844E+01
 -13.285  0.2151E+00  0.1846E+01
 -13.275  0.2127E+00  0.1848E+01
 -13.265  0.2104E+00  0.1850E+01
 -13.255  0.2080E+00  0.1852E+01
 -13.245  0.2057E+00  0.1855E+01
 -13.235  0.2033E+00  0.1857E+01
 -13.225  0.2010E+00  0.1859E+01
 -13.215  0.1986E+00  0.1861E+01
 -13.205  0.1963E+00  0.1863E+01
 -13.195  0.1939E+00  0.1865E+01
 -13.185  0.1916E+00  0.1866E+01
 -13.175  0.2474E+00  0.1868E+01
 -13.165  0.4764E+00  0.1872E+01
 -13.155  0.7053E+00  0.1878E+01
 -13.145  0.9342E+00  0.1886E+01
 -13.135  0.1163E+01  0.1897E+01
 -13.125  0.1392E+01  0.1909E+01
 -13.115  0.1330E+00  0.1917E+01
 -13.105  0.1319E+00  0.1919E+01
 -13.095  0.1309E+00  0.1920E+01
 -13.085  0.1298E+00  0.1921E+01
 -13.075  0.1287E+00  0.1923E+01
 -13.065  0.1277E+00  0.1924E+01
 -13.055  0.1266E+00  0.1925E+01
 -13.045  0.1255E+00  0.1926E+01
 -13.035  0.1244E+00  0.1928E+01
 -13.025  0.1234E+00  0.1929E+01
 -13.015  0.1223E+00  0.1930E+01
 -13.005  0.1212E+00  0.1931E+01
 -12.995  0.1202E+00  0.1933E+01
 -12.985  0.1191E+00  0.1934E+01
 -12.975  0.1180E+00  0.1935E+01
 -12.965  0.1170E+00  0.1936E+01
 -12.955  0.1159E+00  0.1937E+01
 -12.945  0.1148E+00  0.1938E+01
 -12.935  0.1137E+00  0.1940E+01
 -12.925  0.1127E+00  0.1941E+01
 -12.915  0.1116E+00  0.1942E+01
 -12.905  0.1105E+00  0.1943E+01
 -12.895  0.1095E+00  0.1944E+01
 -12.885  0.1084E+00  0.1945E+01
 -12.875  0.1073E+00  0.1946E+01
 -12.865  0.1063E+00  0.1947E+01
 -12.855  0.1052E+00  0.1948E+01
 -12.845  0.1041E+00  0.1949E+01
 -12.835  0.1030E+00  0.1950E+01
 -12.825  0.1020E+00  0.1951E+01
 -12.815  0.1009E+00  0.1952E+01
 -12.805  0.9984E-01  0.1953E+01
 -12.795  0.9877E-01  0.1954E+01
 -12.785  0.9770E-01  0.1955E+01
 -12.775  0.9663E-01  0.1956E+01
 -12.765  0.9556E-01  0.1957E+01
 -12.755  0.9449E-01  0.1958E+01
 -12.745  0.9342E-01  0.1959E+01
 -12.735  0.9235E-01  0.1960E+01
 -12.725  0.9128E-01  0.1961E+01
 -12.715  0.9021E-01  0.1962E+01
 -12.705  0.8914E-01  0.1963E+01
 -12.695  0.8807E-01  0.1964E+01
 -12.685  0.8700E-01  0.1965E+01
 -12.675  0.8593E-01  0.1965E+01
 -12.665  0.8486E-01  0.1966E+01
 -12.655  0.8379E-01  0.1967E+01
 -12.645  0.8272E-01  0.1968E+01
 -12.635  0.8165E-01  0.1969E+01
 -12.625  0.8058E-01  0.1970E+01
 -12.615  0.7951E-01  0.1970E+01
 -12.605  0.7844E-01  0.1971E+01
 -12.595  0.7737E-01  0.1972E+01
 -12.585  0.7630E-01  0.1973E+01
 -12.575  0.7523E-01  0.1974E+01
 -12.565  0.7416E-01  0.1974E+01
 -12.555  0.7309E-01  0.1975E+01
 -12.545  0.7202E-01  0.1976E+01
 -12.535  0.7095E-01  0.1976E+01
 -12.525  0.6988E-01  0.1977E+01
 -12.515  0.6881E-01  0.1978E+01
 -12.505  0.6774E-01  0.1979E+01
 -12.495  0.6667E-01  0.1979E+01
 -12.485  0.6560E-01  0.1980E+01
 -12.475  0.6453E-01  0.1981E+01
 -12.465  0.6346E-01  0.1981E+01
 -12.455  0.6239E-01  0.1982E+01
 -12.445  0.6483E-01  0.1982E+01
 -12.435  0.6747E-01  0.1983E+01
 -12.425  0.7012E-01  0.1984E+01
 -12.415  0.7276E-01  0.1985E+01
 -12.405  0.7540E-01  0.1985E+01
 -12.395  0.7805E-01  0.1986E+01
 -12.385  0.8069E-01  0.1987E+01
 -12.375  0.8334E-01  0.1988E+01
 -12.365  0.8598E-01  0.1988E+01
 -12.355  0.8863E-01  0.1989E+01
 -12.345  0.9127E-01  0.1990E+01
 -12.335  0.9392E-01  0.1991E+01
 -12.325  0.9656E-01  0.1992E+01
 -12.315  0.9921E-01  0.1993E+01
 -12.305  0.1019E+00  0.1994E+01
 -12.295  0.1045E+00  0.1995E+01
 -12.285  0.1071E+00  0.1996E+01
 -12.275  0.1098E+00  0.1997E+01
 -12.265  0.1124E+00  0.1998E+01
 -12.255  0.1151E+00  0.2000E+01
 -12.245  0.1177E+00  0.2001E+01
 -12.235  0.1204E+00  0.2002E+01
 -12.225  0.1230E+00  0.2003E+01
 -12.215  0.1257E+00  0.2004E+01
 -12.205  0.1283E+00  0.2006E+01
 -12.195  0.1309E+00  0.2007E+01
 -12.185  0.1336E+00  0.2008E+01
 -12.175  0.1362E+00  0.2010E+01
 -12.165  0.1389E+00  0.2011E+01
 -12.155  0.1415E+00  0.2012E+01
 -12.145  0.1442E+00  0.2014E+01
 -12.135  0.1468E+00  0.2015E+01
 -12.125  0.1495E+00  0.2017E+01
 -12.115  0.1521E+00  0.2018E+01
 -12.105  0.1547E+00  0.2020E+01
 -12.095  0.1574E+00  0.2021E+01
 -12.085  0.1600E+00  0.2023E+01
 -12.075  0.1627E+00  0.2025E+01
 -12.065  0.1653E+00  0.2026E+01
 -12.055  0.1680E+00  0.2028E+01
 -12.045  0.1870E+00  0.2030E+01
 -12.035  0.2109E+00  0.2032E+01
 -12.025  0.2347E+00  0.2034E+01
 -12.015  0.2585E+00  0.2036E+01
 -12.005  0.2824E+00  0.2039E+01
 -11.995  0.3062E+00  0.2042E+01
 -11.985  0.3301E+00  0.2045E+01
 -11.975  0.3539E+00  0.2049E+01
 -11.965  0.3778E+00  0.2052E+01
 -11.955  0.4016E+00  0.2056E+01
 -11.945  0.4254E+00  0.2060E+01
 -11.935  0.4493E+00  0.2065E+01
 -11.925  0.4731E+00  0.2069E+01
 -11.915  0.4970E+00  0.2074E+01
 -11.905  0.5208E+00  0.2079E+01
 -11.895  0.5447E+00  0.2084E+01
 -11.885  0.5685E+00  0.2090E+01
 -11.875  0.5923E+00  0.2096E+01
 -11.865  0.6194E+00  0.2102E+01
 -11.855  0.6480E+00  0.2108E+01
 -11.845  0.6765E+00  0.2115E+01
 -11.835  0.7050E+00  0.2122E+01
 -11.825  0.7336E+00  0.2129E+01
 -11.815  0.7621E+00  0.2136E+01
 -11.805  0.3126E+00  0.2143E+01
 -11.795  0.3181E+00  0.2146E+01
 -11.785  0.3236E+00  0.2149E+01
 -11.775  0.3291E+00  0.2152E+01
 -11.765  0.3346E+00  0.2156E+01
 -11.755  0.3402E+00  0.2159E+01
 -11.745  0.3457E+00  0.2162E+01
 -11.735  0.3512E+00  0.2166E+01
 -11.725  0.3567E+00  0.2169E+01
 -11.715  0.3622E+00  0.2173E+01
 -11.705  0.3678E+00  0.2177E+01
 -11.695  0.3733E+00  0.2180E+01
 -11.685  0.3788E+00  0.2184E+01
 -11.675  0.3843E+00  0.2188E+01
 -11.665  0.3898E+00  0.2192E+01
 -11.655  0.3953E+00  0.2196E+01
 -11.645  0.4009E+00  0.2200E+01
 -11.635  0.4064E+00  0.2204E+01
 -11.625  0.4119E+00  0.2208E+01
 -11.615  0.4174E+00  0.2212E+01
 -11.605  0.4229E+00  0.2216E+01
 -11.595  0.4285E+00  0.2220E+01
 -11.585  0.4340E+00  0.2225E+01
 -11.575  0.4395E+00  0.2229E+01
 -11.565  0.4450E+00  0.2233E+01
 -11.555  0.4505E+00  0.2238E+01
 -11.545  0.4561E+00  0.2242E+01
 -11.535  0.4616E+00  0.2247E+01
 -11.525  0.4671E+00  0.2252E+01
 -11.515  0.4726E+00  0.2256E+01
 -11.505  0.4781E+00  0.2261E+01
 -11.495  0.4836E+00  0.2266E+01
 -11.485  0.4892E+00  0.2271E+01
 -11.475  0.4947E+00  0.2276E+01
 -11.465  0.5002E+00  0.2281E+01
 -11.455  0.5057E+00  0.2286E+01
 -11.445  0.5112E+00  0.2291E+01
 -11.435  0.5168E+00  0.2296E+01
 -11.425  0.5223E+00  0.2301E+01
 -11.415  0.5278E+00  0.2306E+01
 -11.405  0.5333E+00  0.2312E+01
 -11.395  0.5388E+00  0.2317E+01
 -11.385  0.5444E+00  0.2323E+01
 -11.375  0.5499E+00  0.2328E+01
 -11.365  0.5554E+00  0.2334E+01
 -11.355  0.5609E+00  0.2339E+01
 -11.345  0.5664E+00  0.2345E+01
 -11.335  0.5720E+00  0.2350E+01
 -11.325  0.5775E+00  0.2356E+01
 -11.315  0.5830E+00  0.2362E+01
 -11.305  0.5885E+00  0.2368E+01
 -11.295  0.5940E+00  0.2374E+01
 -11.285  0.5995E+00  0.2380E+01
 -11.275  0.6051E+00  0.2386E+01
 -11.265  0.6106E+00  0.2392E+01
 -11.255  0.6161E+00  0.2398E+01
 -11.245  0.6216E+00  0.2404E+01
 -11.235  0.6271E+00  0.2410E+01
 -11.225  0.6327E+00  0.2417E+01
 -11.215  0.6382E+00  0.2423E+01
 -11.205  0.6437E+00  0.2429E+01
 -11.195  0.6492E+00  0.2436E+01
 -11.185  0.3639E+00  0.2440E+01
 -11.175  0.3629E+00  0.2444E+01
 -11.165  0.3619E+00  0.2447E+01
 -11.155  0.3609E+00  0.2451E+01
 -11.145  0.3599E+00  0.2454E+01
 -11.135  0.3589E+00  0.2458E+01
 -11.125  0.3579E+00  0.2462E+01
 -11.115  0.3569E+00  0.2465E+01
 -11.105  0.3559E+00  0.2469E+01
 -11.095  0.3549E+00  0.2472E+01
 -11.085  0.3539E+00  0.2476E+01
 -11.075  0.3529E+00  0.2479E+01
 -11.065  0.3519E+00  0.2483E+01
 -11.055  0.3509E+00  0.2486E+01
 -11.045  0.3499E+00  0.2490E+01
 -11.035  0.3489E+00  0.2493E+01
 -11.025  0.3479E+00  0.2497E+01
 -11.015  0.3469E+00  0.2500E+01
 -11.005  0.3459E+00  0.2504E+01
 -10.995  0.3449E+00  0.2507E+01
 -10.985  0.3439E+00  0.2511E+01
 -10.975  0.3429E+00  0.2514E+01
 -10.965  0.3419E+00  0.2518E+01
 -10.955  0.3409E+00  0.2521E+01
 -10.945  0.3401E+00  0.2524E+01
 -10.935  0.3393E+00  0.2528E+01
 -10.925  0.3386E+00  0.2531E+01
 -10.915  0.3378E+00  0.2535E+01
 -10.905  0.3371E+00  0.2538E+01
 -10.895  0.3363E+00  0.2541E+01
 -10.885  0.3356E+00  0.2545E+01
 -10.875  0.3348E+00  0.2548E+01
 -10.865  0.3341E+00  0.2551E+01
 -10.855  0.3333E+00  0.2555E+01
 -10.845  0.3326E+00  0.2558E+01
 -10.835  0.3319E+00  0.2561E+01
 -10.825  0.3311E+00  0.2565E+01
 -10.815  0.3304E+00  0.2568E+01
 -10.805  0.3296E+00  0.2571E+01
 -10.795  0.3289E+00  0.2575E+01
 -10.785  0.3281E+00  0.2578E+01
 -10.775  0.3274E+00  0.2581E+01
 -10.765  0.3266E+00  0.2584E+01
 -10.755  0.3259E+00  0.2588E+01
 -10.745  0.3251E+00  0.2591E+01
 -10.735  0.3244E+00  0.2594E+01
 -10.725  0.3237E+00  0.2597E+01
 -10.715  0.3229E+00  0.2601E+01
 -10.705  0.3222E+00  0.2604E+01
 -10.695  0.3214E+00  0.2607E+01
 -10.685  0.3207E+00  0.2610E+01
 -10.675  0.3199E+00  0.2613E+01
 -10.665  0.3192E+00  0.2617E+01
 -10.655  0.3184E+00  0.2620E+01
 -10.645  0.3177E+00  0.2623E+01
 -10.635  0.3169E+00  0.2626E+01
 -10.625  0.3162E+00  0.2629E+01
 -10.615  0.3154E+00  0.2632E+01
 -10.605  0.3146E+00  0.2636E+01
 -10.595  0.3139E+00  0.2639E+01
 -10.585  0.3131E+00  0.2642E+01
 -10.575  0.3123E+00  0.2645E+01
 -10.565  0.3115E+00  0.2648E+01
 -10.555  0.3107E+00  0.2651E+01
 -10.545  0.3099E+00  0.2654E+01
 -10.535  0.3091E+00  0.2657E+01
 -10.525  0.3083E+00  0.2661E+01
 -10.515  0.3075E+00  0.2664E+01
 -10.505  0.3067E+00  0.2667E+01
 -10.495  0.3059E+00  0.2670E+01
 -10.485  0.3051E+00  0.2673E+01
 -10.475  0.3043E+00  0.2676E+01
 -10.465  0.3036E+00  0.2679E+01
 -10.455  0.3028E+00  0.2682E+01
 -10.445  0.3020E+00  0.2685E+01
 -10.435  0.3012E+00  0.2688E+01
 -10.425  0.3004E+00  0.2691E+01
 -10.415  0.2996E+00  0.2694E+01
 -10.405  0.2988E+00  0.2697E+01
 -10.395  0.2980E+00  0.2700E+01
 -10.385  0.2972E+00  0.2703E+01
 -10.375  0.2964E+00  0.2706E+01
 -10.365  0.2956E+00  0.2709E+01
 -10.355  0.2948E+00  0.2712E+01
 -10.345  0.2941E+00  0.2715E+01
 -10.335  0.2933E+00  0.2718E+01
 -10.325  0.2925E+00  0.2721E+01
 -10.315  0.2917E+00  0.2724E+01
 -10.305  0.2909E+00  0.2726E+01
 -10.295  0.2901E+00  0.2729E+01
 -10.285  0.2893E+00  0.2732E+01
 -10.275  0.2885E+00  0.2735E+01
 -10.265  0.2877E+00  0.2738E+01
 -10.255  0.2869E+00  0.2741E+01
 -10.245  0.2861E+00  0.2744E+01
 -10.235  0.2853E+00  0.2747E+01
 -10.225  0.2845E+00  0.2749E+01
 -10.215  0.2838E+00  0.2752E+01
 -10.205  0.2830E+00  0.2755E+01
 -10.195  0.2822E+00  0.2758E+01
 -10.185  0.2814E+00  0.2761E+01
 -10.175  0.2806E+00  0.2764E+01
 -10.165  0.2798E+00  0.2766E+01
 -10.155  0.2790E+00  0.2769E+01
 -10.145  0.2782E+00  0.2772E+01
 -10.135  0.2774E+00  0.2775E+01
 -10.125  0.2766E+00  0.2778E+01
 -10.115  0.2758E+00  0.2780E+01
 -10.105  0.2750E+00  0.2783E+01
 -10.095  0.2743E+00  0.2786E+01
 -10.085  0.2735E+00  0.2789E+01
 -10.075  0.2727E+00  0.2791E+01
 -10.065  0.2719E+00  0.2794E+01
 -10.055  0.2711E+00  0.2797E+01
 -10.045  0.2703E+00  0.2799E+01
 -10.035  0.2695E+00  0.2802E+01
 -10.025  0.2687E+00  0.2805E+01
 -10.015  0.2679E+00  0.2808E+01
 -10.005  0.2671E+00  0.2810E+01
  -9.995  0.2663E+00  0.2813E+01
  -9.985  0.2655E+00  0.2816E+01
  -9.975  0.2648E+00  0.2818E+01
  -9.965  0.2640E+00  0.2821E+01
  -9.955  0.2632E+00  0.2823E+01
  -9.945  0.2624E+00  0.2826E+01
  -9.935  0.2616E+00  0.2829E+01
  -9.925  0.2608E+00  0.2831E+01
  -9.915  0.2600E+00  0.2834E+01
  -9.905  0.2592E+00  0.2836E+01
  -9.895  0.2584E+00  0.2839E+01
  -9.885  0.2576E+00  0.2842E+01
  -9.875  0.2568E+00  0.2844E+01
  -9.865  0.2560E+00  0.2847E+01
  -9.855  0.2552E+00  0.2849E+01
  -9.845  0.2545E+00  0.2852E+01
  -9.835  0.2537E+00  0.2854E+01
  -9.825  0.2529E+00  0.2857E+01
  -9.815  0.2521E+00  0.2859E+01
  -9.805  0.2512E+00  0.2862E+01
  -9.795  0.2504E+00  0.2865E+01
  -9.785  0.2496E+00  0.2867E+01
  -9.775  0.2487E+00  0.2870E+01
  -9.765  0.2479E+00  0.2872E+01
  -9.755  0.2470E+00  0.2874E+01
  -9.745  0.2464E+00  0.2877E+01
  -9.735  0.2463E+00  0.2879E+01
  -9.725  0.2461E+00  0.2882E+01
  -9.715  0.2459E+00  0.2884E+01
  -9.705  0.2458E+00  0.2887E+01
  -9.695  0.2456E+00  0.2889E+01
  -9.685  0.2454E+00  0.2892E+01
  -9.675  0.2453E+00  0.2894E+01
  -9.665  0.2451E+00  0.2897E+01
  -9.655  0.2449E+00  0.2899E+01
  -9.645  0.2448E+00  0.2902E+01
  -9.635  0.2446E+00  0.2904E+01
  -9.625  0.2444E+00  0.2906E+01
  -9.615  0.2443E+00  0.2909E+01
  -9.605  0.2466E+00  0.2911E+01
  -9.595  0.2488E+00  0.2914E+01
  -9.585  0.2510E+00  0.2916E+01
  -9.575  0.2532E+00  0.2919E+01
  -9.565  0.2554E+00  0.2921E+01
  -9.555  0.2577E+00  0.2924E+01
  -9.545  0.2599E+00  0.2926E+01
  -9.535  0.2621E+00  0.2929E+01
  -9.525  0.2643E+00  0.2932E+01
  -9.515  0.2666E+00  0.2934E+01
  -9.505  0.2688E+00  0.2937E+01
  -9.495  0.2710E+00  0.2940E+01
  -9.485  0.2732E+00  0.2942E+01
  -9.475  0.2754E+00  0.2945E+01
  -9.465  0.2777E+00  0.2948E+01
  -9.455  0.2799E+00  0.2951E+01
  -9.445  0.2821E+00  0.2954E+01
  -9.435  0.2843E+00  0.2956E+01
  -9.425  0.2865E+00  0.2959E+01
  -9.415  0.2888E+00  0.2962E+01
  -9.405  0.2910E+00  0.2965E+01
  -9.395  0.2932E+00  0.2968E+01
  -9.385  0.2954E+00  0.2971E+01
  -9.375  0.2977E+00  0.2974E+01
  -9.365  0.2999E+00  0.2977E+01
  -9.355  0.3021E+00  0.2980E+01
  -9.345  0.3043E+00  0.2983E+01
  -9.335  0.3065E+00  0.2986E+01
  -9.325  0.3088E+00  0.2989E+01
  -9.315  0.3110E+00  0.2992E+01
  -9.305  0.3132E+00  0.2995E+01
  -9.295  0.3154E+00  0.2998E+01
  -9.285  0.3177E+00  0.3002E+01
  -9.275  0.3199E+00  0.3005E+01
  -9.265  0.3221E+00  0.3008E+01
  -9.255  0.3243E+00  0.3011E+01
  -9.245  0.3265E+00  0.3014E+01
  -9.235  0.3288E+00  0.3018E+01
  -9.225  0.3310E+00  0.3021E+01
  -9.215  0.3332E+00  0.3024E+01
  -9.205  0.3354E+00  0.3028E+01
  -9.195  0.3377E+00  0.3031E+01
  -9.185  0.3399E+00  0.3034E+01
  -9.175  0.3421E+00  0.3038E+01
  -9.165  0.3443E+00  0.3041E+01
  -9.155  0.3465E+00  0.3045E+01
  -9.145  0.3488E+00  0.3048E+01
  -9.135  0.3510E+00  0.3052E+01
  -9.125  0.3532E+00  0.3055E+01
  -9.115  0.3554E+00  0.3059E+01
  -9.105  0.3577E+00  0.3062E+01
  -9.095  0.3599E+00  0.3066E+01
  -9.085  0.3621E+00  0.3070E+01
  -9.075  0.3643E+00  0.3073E+01
  -9.065  0.3665E+00  0.3077E+01
  -9.055  0.3688E+00  0.3081E+01
  -9.045  0.3710E+00  0.3084E+01
  -9.035  0.3732E+00  0.3088E+01
  -9.025  0.3754E+00  0.3092E+01
  -9.015  0.3777E+00  0.3095E+01
  -9.005  0.3799E+00  0.3099E+01
  -8.995  0.3821E+00  0.3103E+01
  -8.985  0.3843E+00  0.3107E+01
  -8.975  0.3865E+00  0.3111E+01
  -8.965  0.3888E+00  0.3115E+01
  -8.955  0.3910E+00  0.3118E+01
  -8.945  0.3932E+00  0.3122E+01
  -8.935  0.3954E+00  0.3126E+01
  -8.925  0.3977E+00  0.3130E+01
  -8.915  0.3999E+00  0.3134E+01
  -8.905  0.4021E+00  0.3138E+01
  -8.895  0.4043E+00  0.3142E+01
  -8.885  0.4065E+00  0.3146E+01
  -8.875  0.4088E+00  0.3150E+01
  -8.865  0.4110E+00  0.3155E+01
  -8.855  0.4132E+00  0.3159E+01
  -8.845  0.4154E+00  0.3163E+01
  -8.835  0.4177E+00  0.3167E+01
  -8.825  0.4199E+00  0.3171E+01
  -8.815  0.4221E+00  0.3175E+01
  -8.805  0.4243E+00  0.3180E+01
  -8.795  0.4265E+00  0.3184E+01
  -8.785  0.4288E+00  0.3188E+01
  -8.775  0.4034E+00  0.3192E+01
  -8.765  0.4034E+00  0.3196E+01
  -8.755  0.4034E+00  0.3200E+01
  -8.745  0.4034E+00  0.3204E+01
  -8.735  0.4033E+00  0.3208E+01
  -8.725  0.4033E+00  0.3213E+01
  -8.715  0.4033E+00  0.3217E+01
  -8.705  0.4033E+00  0.3221E+01
  -8.695  0.4032E+00  0.3225E+01
  -8.685  0.4032E+00  0.3229E+01
  -8.675  0.4032E+00  0.3233E+01
  -8.665  0.4032E+00  0.3237E+01
  -8.655  0.3735E+00  0.3241E+01
  -8.645  0.3736E+00  0.3244E+01
  -8.635  0.3736E+00  0.3248E+01
  -8.625  0.3736E+00  0.3252E+01
  -8.615  0.3737E+00  0.3255E+01
  -8.605  0.3737E+00  0.3259E+01
  -8.595  0.3738E+00  0.3263E+01
  -8.585  0.3738E+00  0.3267E+01
  -8.575  0.3739E+00  0.3270E+01
  -8.565  0.3739E+00  0.3274E+01
  -8.555  0.3740E+00  0.3278E+01
  -8.545  0.3740E+00  0.3282E+01
  -8.535  0.3740E+00  0.3285E+01
  -8.525  0.3741E+00  0.3289E+01
  -8.515  0.3741E+00  0.3293E+01
  -8.505  0.3742E+00  0.3297E+01
  -8.495  0.3742E+00  0.3300E+01
  -8.485  0.3743E+00  0.3304E+01
  -8.475  0.3743E+00  0.3308E+01
  -8.465  0.3744E+00  0.3312E+01
  -8.455  0.3744E+00  0.3315E+01
  -8.445  0.3744E+00  0.3319E+01
  -8.435  0.3745E+00  0.3323E+01
  -8.425  0.3745E+00  0.3327E+01
  -8.415  0.3746E+00  0.3330E+01
  -8.405  0.3746E+00  0.3334E+01
  -8.395  0.3747E+00  0.3338E+01
  -8.385  0.3747E+00  0.3342E+01
  -8.375  0.3747E+00  0.3345E+01
  -8.365  0.3748E+00  0.3349E+01
  -8.355  0.3748E+00  0.3353E+01
  -8.345  0.3749E+00  0.3357E+01
  -8.335  0.3749E+00  0.3360E+01
  -8.325  0.3750E+00  0.3364E+01
  -8.315  0.3750E+00  0.3368E+01
  -8.305  0.3751E+00  0.3372E+01
  -8.295  0.3751E+00  0.3375E+01
  -8.285  0.3751E+00  0.3379E+01
  -8.275  0.3752E+00  0.3383E+01
  -8.265  0.3752E+00  0.3387E+01
  -8.255  0.3753E+00  0.3390E+01
  -8.245  0.3753E+00  0.3394E+01
  -8.235  0.3754E+00  0.3398E+01
  -8.225  0.3754E+00  0.3402E+01
  -8.215  0.3755E+00  0.3405E+01
  -8.205  0.3755E+00  0.3409E+01
  -8.195  0.3755E+00  0.3413E+01
  -8.185  0.3756E+00  0.3417E+01
  -8.175  0.3756E+00  0.3420E+01
  -8.165  0.3757E+00  0.3424E+01
  -8.155  0.3757E+00  0.3428E+01
  -8.145  0.3758E+00  0.3432E+01
  -8.135  0.3758E+00  0.3435E+01
  -8.125  0.3759E+00  0.3439E+01
  -8.115  0.3759E+00  0.3443E+01
  -8.105  0.3759E+00  0.3447E+01
  -8.095  0.3760E+00  0.3450E+01
  -8.085  0.3760E+00  0.3454E+01
  -8.075  0.3761E+00  0.3458E+01
  -8.065  0.3761E+00  0.3462E+01
  -8.055  0.3762E+00  0.3465E+01
  -8.045  0.3769E+00  0.3469E+01
  -8.035  0.3775E+00  0.3473E+01
  -8.025  0.3782E+00  0.3477E+01
  -8.015  0.3789E+00  0.3481E+01
  -8.005  0.3796E+00  0.3484E+01
  -7.995  0.3802E+00  0.3488E+01
  -7.985  0.3809E+00  0.3492E+01
  -7.975  0.3816E+00  0.3496E+01
  -7.965  0.3823E+00  0.3500E+01
  -7.955  0.3829E+00  0.3503E+01
  -7.945  0.3836E+00  0.3507E+01
  -7.935  0.3843E+00  0.3511E+01
  -7.925  0.3850E+00  0.3515E+01
  -7.915  0.3856E+00  0.3519E+01
  -7.905  0.3863E+00  0.3523E+01
  -7.895  0.3870E+00  0.3526E+01
  -7.885  0.3876E+00  0.3530E+01
  -7.875  0.3883E+00  0.3534E+01
  -7.865  0.3890E+00  0.3538E+01
  -7.855  0.3897E+00  0.3542E+01
  -7.845  0.3903E+00  0.3546E+01
  -7.835  0.3910E+00  0.3550E+01
  -7.825  0.3917E+00  0.3554E+01
  -7.815  0.3924E+00  0.3558E+01
  -7.805  0.3930E+00  0.3562E+01
  -7.795  0.3937E+00  0.3566E+01
  -7.785  0.3944E+00  0.3569E+01
  -7.775  0.3951E+00  0.3573E+01
  -7.765  0.3957E+00  0.3577E+01
  -7.755  0.3964E+00  0.3581E+01
  -7.745  0.3971E+00  0.3585E+01
  -7.735  0.3978E+00  0.3589E+01
  -7.725  0.3984E+00  0.3593E+01
  -7.715  0.3991E+00  0.3597E+01
  -7.705  0.3998E+00  0.3601E+01
  -7.695  0.4004E+00  0.3605E+01
  -7.685  0.4011E+00  0.3609E+01
  -7.675  0.4018E+00  0.3613E+01
  -7.665  0.4025E+00  0.3617E+01
  -7.655  0.4031E+00  0.3621E+01
  -7.645  0.4038E+00  0.3625E+01
  -7.635  0.4045E+00  0.3629E+01
  -7.625  0.4052E+00  0.3633E+01
  -7.615  0.4056E+00  0.3637E+01
  -7.605  0.4059E+00  0.3642E+01
  -7.595  0.4063E+00  0.3646E+01
  -7.585  0.4067E+00  0.3650E+01
  -7.575  0.4070E+00  0.3654E+01
  -7.565  0.4074E+00  0.3658E+01
  -7.555  0.4078E+00  0.3662E+01
  -7.545  0.4081E+00  0.3666E+01
  -7.535  0.4085E+00  0.3670E+01
  -7.525  0.4089E+00  0.3674E+01
  -7.515  0.4093E+00  0.3678E+01
  -7.505  0.4096E+00  0.3682E+01
  -7.495  0.4100E+00  0.3686E+01
  -7.485  0.4104E+00  0.3691E+01
  -7.475  0.4107E+00  0.3695E+01
  -7.465  0.4111E+00  0.3699E+01
  -7.455  0.4115E+00  0.3703E+01
  -7.445  0.4119E+00  0.3707E+01
  -7.435  0.4122E+00  0.3711E+01
  -7.425  0.4126E+00  0.3715E+01
  -7.415  0.4130E+00  0.3719E+01
  -7.405  0.4133E+00  0.3723E+01
  -7.395  0.4137E+00  0.3728E+01
  -7.385  0.4141E+00  0.3732E+01
  -7.375  0.4145E+00  0.3736E+01
  -7.365  0.4148E+00  0.3740E+01
  -7.355  0.4152E+00  0.3744E+01
  -7.345  0.4159E+00  0.3748E+01
  -7.335  0.4174E+00  0.3753E+01
  -7.325  0.4189E+00  0.3757E+01
  -7.315  0.4204E+00  0.3761E+01
  -7.305  0.4219E+00  0.3765E+01
  -7.295  0.4234E+00  0.3769E+01
  -7.285  0.4248E+00  0.3774E+01
  -7.275  0.4263E+00  0.3778E+01
  -7.265  0.4278E+00  0.3782E+01
  -7.255  0.4293E+00  0.3786E+01
  -7.245  0.4308E+00  0.3791E+01
  -7.235  0.4323E+00  0.3795E+01
  -7.225  0.4338E+00  0.3799E+01
  -7.215  0.4353E+00  0.3804E+01
  -7.205  0.4368E+00  0.3808E+01
  -7.195  0.4383E+00  0.3812E+01
  -7.185  0.4398E+00  0.3817E+01
  -7.175  0.4413E+00  0.3821E+01
  -7.165  0.4428E+00  0.3826E+01
  -7.155  0.4434E+00  0.3830E+01
  -7.145  0.4437E+00  0.3834E+01
  -7.135  0.4440E+00  0.3839E+01
  -7.125  0.4443E+00  0.3843E+01
  -7.115  0.4445E+00  0.3848E+01
  -7.105  0.4448E+00  0.3852E+01
  -7.095  0.4451E+00  0.3857E+01
  -7.085  0.4454E+00  0.3861E+01
  -7.075  0.4457E+00  0.3866E+01
  -7.065  0.4459E+00  0.3870E+01
  -7.055  0.4462E+00  0.3875E+01
  -7.045  0.4465E+00  0.3879E+01
  -7.035  0.4468E+00  0.3883E+01
  -7.025  0.4471E+00  0.3888E+01
  -7.015  0.4474E+00  0.3892E+01
  -7.005  0.4476E+00  0.3897E+01
  -6.995  0.4479E+00  0.3901E+01
  -6.985  0.4482E+00  0.3906E+01
  -6.975  0.4485E+00  0.3910E+01
  -6.965  0.4488E+00  0.3915E+01
  -6.955  0.4490E+00  0.3919E+01
  -6.945  0.4493E+00  0.3924E+01
  -6.935  0.4496E+00  0.3928E+01
  -6.925  0.4499E+00  0.3933E+01
  -6.915  0.4502E+00  0.3937E+01
  -6.905  0.4505E+00  0.3942E+01
  -6.895  0.4507E+00  0.3946E+01
  -6.885  0.4511E+00  0.3951E+01
  -6.875  0.4517E+00  0.3955E+01
  -6.865  0.4523E+00  0.3960E+01
  -6.855  0.4529E+00  0.3964E+01
  -6.845  0.4535E+00  0.3969E+01
  -6.835  0.4541E+00  0.3973E+01
  -6.825  0.4547E+00  0.3978E+01
  -6.815  0.4553E+00  0.3983E+01
  -6.805  0.4559E+00  0.3987E+01
  -6.795  0.4566E+00  0.3992E+01
  -6.785  0.4572E+00  0.3996E+01
  -6.775  0.4578E+00  0.4001E+01
  -6.765  0.4584E+00  0.4005E+01
  -6.755  0.4590E+00  0.4010E+01
  -6.745  0.4596E+00  0.4015E+01
  -6.735  0.4602E+00  0.4019E+01
  -6.725  0.4608E+00  0.4024E+01
  -6.715  0.4614E+00  0.4028E+01
  -6.705  0.4620E+00  0.4033E+01
  -6.695  0.4626E+00  0.4038E+01
  -6.685  0.4632E+00  0.4042E+01
  -6.675  0.4638E+00  0.4047E+01
  -6.665  0.4644E+00  0.4052E+01
  -6.655  0.4753E+00  0.4056E+01
  -6.645  0.5034E+00  0.4061E+01
  -6.635  0.5316E+00  0.4066E+01
  -6.625  0.5598E+00  0.4072E+01
  -6.615  0.5879E+00  0.4077E+01
  -6.605  0.6161E+00  0.4083E+01
  -6.595  0.6442E+00  0.4090E+01
  -6.585  0.6724E+00  0.4096E+01
  -6.575  0.7005E+00  0.4103E+01
  -6.565  0.7287E+00  0.4110E+01
  -6.555  0.7812E+00  0.4118E+01
  -6.545  0.8092E+00  0.4126E+01
  -6.535  0.8375E+00  0.4134E+01
  -6.525  0.8673E+00  0.4143E+01
  -6.515  0.8971E+00  0.4151E+01
  -6.505  0.9269E+00  0.4161E+01
  -6.495  0.9567E+00  0.4170E+01
  -6.485  0.9865E+00  0.4180E+01
  -6.475  0.7332E+00  0.4187E+01
  -6.465  0.7371E+00  0.4194E+01
  -6.455  0.7410E+00  0.4202E+01
  -6.445  0.7449E+00  0.4209E+01
  -6.435  0.7488E+00  0.4217E+01
  -6.425  0.7527E+00  0.4224E+01
  -6.415  0.7566E+00  0.4232E+01
  -6.405  0.7605E+00  0.4239E+01
  -6.395  0.7644E+00  0.4247E+01
  -6.385  0.7683E+00  0.4255E+01
  -6.375  0.7722E+00  0.4262E+01
  -6.365  0.7761E+00  0.4270E+01
  -6.355  0.7800E+00  0.4278E+01
  -6.345  0.7839E+00  0.4286E+01
  -6.335  0.7878E+00  0.4293E+01
  -6.325  0.7917E+00  0.4301E+01
  -6.315  0.7956E+00  0.4309E+01
  -6.305  0.7995E+00  0.4317E+01
  -6.295  0.8034E+00  0.4325E+01
  -6.285  0.8073E+00  0.4333E+01
  -6.275  0.8112E+00  0.4341E+01
  -6.265  0.8151E+00  0.4350E+01
  -6.255  0.8190E+00  0.4358E+01
  -6.245  0.8229E+00  0.4366E+01
  -6.235  0.8268E+00  0.4374E+01
  -6.225  0.8307E+00  0.4382E+01
  -6.215  0.8346E+00  0.4391E+01
  -6.205  0.8386E+00  0.4399E+01
  -6.195  0.8425E+00  0.4408E+01
  -6.185  0.8464E+00  0.4416E+01
  -6.175  0.8503E+00  0.4425E+01
  -6.165  0.8542E+00  0.4433E+01
  -6.155  0.8581E+00  0.4442E+01
  -6.145  0.8620E+00  0.4450E+01
  -6.135  0.8659E+00  0.4459E+01
  -6.125  0.8698E+00  0.4468E+01
  -6.115  0.8737E+00  0.4476E+01
  -6.105  0.8780E+00  0.4485E+01
  -6.095  0.8831E+00  0.4494E+01
  -6.085  0.8882E+00  0.4503E+01
  -6.075  0.8933E+00  0.4512E+01
  -6.065  0.8984E+00  0.4521E+01
  -6.055  0.9035E+00  0.4530E+01
  -6.045  0.9087E+00  0.4539E+01
  -6.035  0.9138E+00  0.4548E+01
  -6.025  0.9189E+00  0.4557E+01
  -6.015  0.9240E+00  0.4566E+01
  -6.005  0.9291E+00  0.4575E+01
  -5.995  0.9342E+00  0.4585E+01
  -5.985  0.9393E+00  0.4594E+01
  -5.975  0.1051E+01  0.4604E+01
  -5.965  0.1062E+01  0.4614E+01
  -5.955  0.1073E+01  0.4625E+01
  -5.945  0.1084E+01  0.4636E+01
  -5.935  0.1095E+01  0.4646E+01
  -5.925  0.1106E+01  0.4657E+01
  -5.915  0.1117E+01  0.4669E+01
  -5.905  0.1128E+01  0.4680E+01
  -5.895  0.1134E+01  0.4691E+01
  -5.885  0.1129E+01  0.4702E+01
  -5.875  0.1124E+01  0.4714E+01
  -5.865  0.1120E+01  0.4725E+01
  -5.855  0.1115E+01  0.4736E+01
  -5.845  0.1111E+01  0.4747E+01
  -5.835  0.1106E+01  0.4758E+01
  -5.825  0.1101E+01  0.4769E+01
  -5.815  0.1097E+01  0.4780E+01
  -5.805  0.1092E+01  0.4791E+01
  -5.795  0.1088E+01  0.4802E+01
  -5.785  0.1083E+01  0.4813E+01
  -5.775  0.1078E+01  0.4824E+01
  -5.765  0.1074E+01  0.4835E+01
  -5.755  0.1069E+01  0.4845E+01
  -5.745  0.1065E+01  0.4856E+01
  -5.735  0.1060E+01  0.4867E+01
  -5.725  0.1055E+01  0.4877E+01
  -5.715  0.1051E+01  0.4888E+01
  -5.705  0.1046E+01  0.4898E+01
  -5.695  0.1042E+01  0.4909E+01
  -5.685  0.1037E+01  0.4919E+01
  -5.675  0.1032E+01  0.4929E+01
  -5.665  0.1028E+01  0.4940E+01
  -5.655  0.1023E+01  0.4950E+01
  -5.645  0.1019E+01  0.4960E+01
  -5.635  0.1011E+01  0.4970E+01
  -5.625  0.1002E+01  0.4980E+01
  -5.615  0.9935E+00  0.4990E+01
  -5.605  0.9848E+00  0.5000E+01
  -5.595  0.9762E+00  0.5010E+01
  -5.585  0.9676E+00  0.5020E+01
  -5.575  0.9590E+00  0.5029E+01
  -5.565  0.9504E+00  0.5039E+01
  -5.555  0.9418E+00  0.5048E+01
  -5.545  0.9332E+00  0.5058E+01
  -5.535  0.7184E+00  0.5067E+01
  -5.525  0.7208E+00  0.5074E+01
  -5.515  0.7325E+00  0.5081E+01
  -5.505  0.7755E+00  0.5089E+01
  -5.495  0.8184E+00  0.5097E+01
  -5.485  0.8614E+00  0.5105E+01
  -5.475  0.9009E+00  0.5114E+01
  -5.465  0.9250E+00  0.5123E+01
  -5.455  0.9492E+00  0.5133E+01
  -5.445  0.9734E+00  0.5142E+01
  -5.435  0.9976E+00  0.5152E+01
  -5.425  0.1022E+01  0.5162E+01
  -5.415  0.1046E+01  0.5172E+01
  -5.405  0.1070E+01  0.5183E+01
  -5.395  0.1094E+01  0.5194E+01
  -5.385  0.1119E+01  0.5205E+01
  -5.375  0.1143E+01  0.5216E+01
  -5.365  0.1167E+01  0.5228E+01
  -5.355  0.1191E+01  0.5240E+01
  -5.345  0.1215E+01  0.5252E+01
  -5.335  0.8291E+00  0.5263E+01
  -5.325  0.8198E+00  0.5272E+01
  -5.315  0.8230E+00  0.5280E+01
  -5.305  0.8262E+00  0.5288E+01
  -5.295  0.8294E+00  0.5296E+01
  -5.285  0.8326E+00  0.5305E+01
  -5.275  0.8358E+00  0.5313E+01
  -5.265  0.8390E+00  0.5321E+01
  -5.255  0.8422E+00  0.5330E+01
  -5.245  0.8454E+00  0.5338E+01
  -5.235  0.8486E+00  0.5347E+01
  -5.225  0.8518E+00  0.5355E+01
  -5.215  0.8550E+00  0.5364E+01
  -5.205  0.8582E+00  0.5372E+01
  -5.195  0.8614E+00  0.5381E+01
  -5.185  0.8646E+00  0.5390E+01
  -5.175  0.8678E+00  0.5398E+01
  -5.165  0.8710E+00  0.5407E+01
  -5.155  0.8742E+00  0.5416E+01
  -5.145  0.8774E+00  0.5424E+01
  -5.135  0.8806E+00  0.5433E+01
  -5.125  0.8838E+00  0.5442E+01
  -5.115  0.8870E+00  0.5451E+01
  -5.105  0.8902E+00  0.5460E+01
  -5.095  0.8934E+00  0.5469E+01
  -5.085  0.8966E+00  0.5478E+01
  -5.075  0.8998E+00  0.5487E+01
  -5.065  0.9030E+00  0.5496E+01
  -5.055  0.9062E+00  0.5505E+01
  -5.045  0.9094E+00  0.5514E+01
  -5.035  0.9126E+00  0.5523E+01
  -5.025  0.9158E+00  0.5532E+01
  -5.015  0.9190E+00  0.5541E+01
  -5.005  0.9222E+00  0.5550E+01
  -4.995  0.9254E+00  0.5560E+01
  -4.985  0.1010E+01  0.5569E+01
  -4.975  0.1180E+01  0.5580E+01
  -4.965  0.1351E+01  0.5593E+01
  -4.955  0.1521E+01  0.5607E+01
  -4.945  0.1692E+01  0.5623E+01
  -4.935  0.1699E+01  0.5641E+01
  -4.925  0.1481E+01  0.5656E+01
  -4.915  0.1263E+01  0.5670E+01
  -4.905  0.1045E+01  0.5682E+01
  -4.895  0.8274E+00  0.5691E+01
  -4.885  0.6094E+00  0.5698E+01
  -4.875  0.3914E+00  0.5703E+01
  -4.865  0.2433E+00  0.5706E+01
  -4.855  0.2408E+00  0.5709E+01
  -4.845  0.2383E+00  0.5711E+01
  -4.835  0.2359E+00  0.5713E+01
  -4.825  0.2334E+00  0.5716E+01
  -4.815  0.2310E+00  0.5718E+01
  -4.805  0.2285E+00  0.5720E+01
  -4.795  0.2261E+00  0.5723E+01
  -4.785  0.2236E+00  0.5725E+01
  -4.775  0.2212E+00  0.5727E+01
  -4.765  0.2187E+00  0.5729E+01
  -4.755  0.2162E+00  0.5731E+01
  -4.745  0.2138E+00  0.5734E+01
  -4.735  0.2113E+00  0.5736E+01
  -4.725  0.2089E+00  0.5738E+01
  -4.715  0.2064E+00  0.5740E+01
  -4.705  0.2040E+00  0.5742E+01
  -4.695  0.2015E+00  0.5744E+01
  -4.685  0.1991E+00  0.5746E+01
  -4.675  0.1966E+00  0.5748E+01
  -4.665  0.1941E+00  0.5750E+01
  -4.655  0.1917E+00  0.5752E+01
  -4.645  0.1892E+00  0.5754E+01
  -4.635  0.1868E+00  0.5756E+01
  -4.625  0.1843E+00  0.5757E+01
  -4.615  0.1819E+00  0.5759E+01
  -4.605  0.1794E+00  0.5761E+01
  -4.595  0.1770E+00  0.5763E+01
  -4.585  0.1745E+00  0.5765E+01
  -4.575  0.1720E+00  0.5766E+01
  -4.565  0.1696E+00  0.5768E+01
  -4.555  0.1671E+00  0.5770E+01
  -4.545  0.1647E+00  0.5771E+01
  -4.535  0.1622E+00  0.5773E+01
  -4.525  0.1598E+00  0.5775E+01
  -4.515  0.1573E+00  0.5776E+01
  -4.505  0.1549E+00  0.5778E+01
  -4.495  0.1524E+00  0.5779E+01
  -4.485  0.1499E+00  0.5781E+01
  -4.475  0.1475E+00  0.5782E+01
  -4.465  0.1450E+00  0.5784E+01
  -4.455  0.1426E+00  0.5785E+01
  -4.445  0.1401E+00  0.5787E+01
  -4.435  0.1377E+00  0.5788E+01
  -4.425  0.1352E+00  0.5789E+01
  -4.415  0.1328E+00  0.5791E+01
  -4.405  0.1303E+00  0.5792E+01
  -4.395  0.1278E+00  0.5793E+01
  -4.385  0.1272E+00  0.5795E+01
  -4.375  0.1732E+00  0.5796E+01
  -4.365  0.2253E+00  0.5798E+01
  -4.355  0.2774E+00  0.5801E+01
  -4.345  0.3295E+00  0.5804E+01
  -4.335  0.3816E+00  0.5807E+01
  -4.325  0.4337E+00  0.5811E+01
  -4.315  0.4858E+00  0.5816E+01
  -4.305  0.5379E+00  0.5821E+01
  -4.295  0.5900E+00  0.5827E+01
  -4.285  0.6421E+00  0.5833E+01
  -4.275  0.6942E+00  0.5839E+01
  -4.265  0.7463E+00  0.5847E+01
  -4.255  0.7984E+00  0.5854E+01
  -4.245  0.8505E+00  0.5863E+01
  -4.235  0.9026E+00  0.5871E+01
  -4.225  0.9547E+00  0.5881E+01
  -4.215  0.1007E+01  0.5891E+01
  -4.205  0.1059E+01  0.5901E+01
  -4.195  0.1164E+01  0.5912E+01
  -4.185  0.1411E+01  0.5925E+01
  -4.175  0.1658E+01  0.5940E+01
  -4.165  0.1905E+01  0.5958E+01
  -4.155  0.2152E+01  0.5978E+01
  -4.145  0.2399E+01  0.6001E+01
  -4.135  0.2645E+01  0.6026E+01
  -4.125  0.2892E+01  0.6054E+01
  -4.115  0.8511E+00  0.6076E+01
  -4.105  0.8456E+00  0.6084E+01
  -4.095  0.8401E+00  0.6093E+01
  -4.085  0.8346E+00  0.6101E+01
  -4.075  0.8290E+00  0.6110E+01
  -4.065  0.8235E+00  0.6118E+01
  -4.055  0.8180E+00  0.6126E+01
  -4.045  0.8124E+00  0.6134E+01
  -4.035  0.8069E+00  0.6142E+01
  -4.025  0.8014E+00  0.6150E+01
  -4.015  0.7959E+00  0.6158E+01
  -4.005  0.7903E+00  0.6166E+01
  -3.995  0.7848E+00  0.6174E+01
  -3.985  0.7793E+00  0.6182E+01
  -3.975  0.7738E+00  0.6190E+01
  -3.965  0.7682E+00  0.6197E+01
  -3.955  0.7627E+00  0.6205E+01
  -3.945  0.7572E+00  0.6213E+01
  -3.935  0.7517E+00  0.6220E+01
  -3.925  0.7461E+00  0.6228E+01
  -3.915  0.7406E+00  0.6235E+01
  -3.905  0.7351E+00  0.6242E+01
  -3.895  0.7296E+00  0.6250E+01
  -3.885  0.7240E+00  0.6257E+01
  -3.875  0.7185E+00  0.6264E+01
  -3.865  0.7130E+00  0.6271E+01
  -3.855  0.7074E+00  0.6279E+01
  -3.845  0.7019E+00  0.6286E+01
  -3.835  0.6964E+00  0.6293E+01
  -3.825  0.6909E+00  0.6300E+01
  -3.815  0.6853E+00  0.6306E+01
  -3.805  0.6798E+00  0.6313E+01
  -3.795  0.6743E+00  0.6320E+01
  -3.785  0.6688E+00  0.6327E+01
  -3.775  0.6632E+00  0.6333E+01
  -3.765  0.6578E+00  0.6340E+01
  -3.755  0.6525E+00  0.6347E+01
  -3.745  0.6472E+00  0.6353E+01
  -3.735  0.6419E+00  0.6359E+01
  -3.725  0.6366E+00  0.6366E+01
  -3.715  0.6312E+00  0.6372E+01
  -3.705  0.6259E+00  0.6379E+01
  -3.695  0.6206E+00  0.6385E+01
  -3.685  0.6153E+00  0.6391E+01
  -3.675  0.6100E+00  0.6397E+01
  -3.665  0.6047E+00  0.6403E+01
  -3.655  0.6013E+00  0.6409E+01
  -3.645  0.6004E+00  0.6415E+01
  -3.635  0.5995E+00  0.6421E+01
  -3.625  0.5986E+00  0.6427E+01
  -3.615  0.5977E+00  0.6433E+01
  -3.605  0.5968E+00  0.6439E+01
  -3.595  0.5959E+00  0.6445E+01
  -3.585  0.5950E+00  0.6451E+01
  -3.575  0.5941E+00  0.6457E+01
  -3.565  0.5932E+00  0.6463E+01
  -3.555  0.5923E+00  0.6469E+01
  -3.545  0.5914E+00  0.6475E+01
  -3.535  0.5905E+00  0.6481E+01
  -3.525  0.5896E+00  0.6487E+01
  -3.515  0.5887E+00  0.6492E+01
  -3.505  0.5878E+00  0.6498E+01
  -3.495  0.5869E+00  0.6504E+01
  -3.485  0.5860E+00  0.6510E+01
  -3.475  0.5851E+00  0.6516E+01
  -3.465  0.5842E+00  0.6522E+01
  -3.455  0.5833E+00  0.6528E+01
  -3.445  0.5824E+00  0.6533E+01
  -3.435  0.5815E+00  0.6539E+01
  -3.425  0.5806E+00  0.6545E+01
  -3.415  0.5797E+00  0.6551E+01
  -3.405  0.5788E+00  0.6557E+01
  -3.395  0.5779E+00  0.6562E+01
  -3.385  0.5770E+00  0.6568E+01
  -3.375  0.5760E+00  0.6574E+01
  -3.365  0.5751E+00  0.6580E+01
  -3.355  0.5742E+00  0.6585E+01
  -3.345  0.5733E+00  0.6591E+01
  -3.335  0.5724E+00  0.6597E+01
  -3.325  0.5715E+00  0.6603E+01
  -3.315  0.5706E+00  0.6608E+01
  -3.305  0.5697E+00  0.6614E+01
  -3.295  0.5688E+00  0.6620E+01
  -3.285  0.5679E+00  0.6625E+01
  -3.275  0.5670E+00  0.6631E+01
  -3.265  0.5661E+00  0.6637E+01
  -3.255  0.5652E+00  0.6642E+01
  -3.245  0.5643E+00  0.6648E+01
  -3.235  0.5634E+00  0.6654E+01
  -3.225  0.5625E+00  0.6659E+01
  -3.215  0.5640E+00  0.6665E+01
  -3.205  0.5661E+00  0.6671E+01
  -3.195  0.5683E+00  0.6676E+01
  -3.185  0.5704E+00  0.6682E+01
  -3.175  0.5726E+00  0.6688E+01
  -3.165  0.5747E+00  0.6693E+01
  -3.155  0.5769E+00  0.6699E+01
  -3.145  0.5790E+00  0.6705E+01
  -3.135  0.5812E+00  0.6711E+01
  -3.125  0.5834E+00  0.6717E+01
  -3.115  0.5854E+00  0.6722E+01
  -3.105  0.5844E+00  0.6728E+01
  -3.095  0.5796E+00  0.6734E+01
  -3.085  0.5784E+00  0.6740E+01
  -3.075  0.5773E+00  0.6746E+01
  -3.065  0.5761E+00  0.6751E+01
  -3.055  0.5750E+00  0.6757E+01
  -3.045  0.5739E+00  0.6763E+01
  -3.035  0.5727E+00  0.6769E+01
  -3.025  0.5716E+00  0.6774E+01
  -3.015  0.5704E+00  0.6780E+01
  -3.005  0.5693E+00  0.6786E+01
  -2.995  0.5681E+00  0.6791E+01
  -2.985  0.5670E+00  0.6797E+01
  -2.975  0.5659E+00  0.6803E+01
  -2.965  0.5647E+00  0.6808E+01
  -2.955  0.5636E+00  0.6814E+01
  -2.945  0.5624E+00  0.6820E+01
  -2.935  0.5613E+00  0.6825E+01
  -2.925  0.5602E+00  0.6831E+01
  -2.915  0.5590E+00  0.6837E+01
  -2.905  0.5579E+00  0.6842E+01
  -2.895  0.5567E+00  0.6848E+01
  -2.885  0.5556E+00  0.6853E+01
  -2.875  0.5545E+00  0.6859E+01
  -2.865  0.5533E+00  0.6864E+01
  -2.855  0.5522E+00  0.6870E+01
  -2.845  0.5510E+00  0.6875E+01
  -2.835  0.5499E+00  0.6881E+01
  -2.825  0.5487E+00  0.6886E+01
  -2.815  0.5476E+00  0.6892E+01
  -2.805  0.5465E+00  0.6897E+01
  -2.795  0.5454E+00  0.6903E+01
  -2.785  0.5447E+00  0.6908E+01
  -2.775  0.5439E+00  0.6914E+01
  -2.765  0.5432E+00  0.6919E+01
  -2.755  0.5714E+00  0.6925E+01
  -2.745  0.5693E+00  0.6931E+01
  -2.735  0.5673E+00  0.6936E+01
  -2.725  0.5652E+00  0.6942E+01
  -2.715  0.5632E+00  0.6948E+01
  -2.705  0.5611E+00  0.6953E+01
  -2.695  0.5590E+00  0.6959E+01
  -2.685  0.5570E+00  0.6964E+01
  -2.675  0.5549E+00  0.6970E+01
  -2.665  0.5529E+00  0.6975E+01
  -2.655  0.5508E+00  0.6981E+01
  -2.645  0.5488E+00  0.6986E+01
  -2.635  0.5467E+00  0.6992E+01
  -2.625  0.5446E+00  0.6997E+01
  -2.615  0.5426E+00  0.7003E+01
  -2.605  0.5405E+00  0.7008E+01
  -2.595  0.5385E+00  0.7014E+01
  -2.585  0.5364E+00  0.7019E+01
  -2.575  0.5344E+00  0.7024E+01
  -2.565  0.5323E+00  0.7030E+01
  -2.555  0.5303E+00  0.7035E+01
  -2.545  0.5282E+00  0.7040E+01
  -2.535  0.5261E+00  0.7046E+01
  -2.525  0.5241E+00  0.7051E+01
  -2.515  0.5220E+00  0.7056E+01
  -2.505  0.5200E+00  0.7061E+01
  -2.495  0.5179E+00  0.7066E+01
  -2.485  0.5159E+00  0.7072E+01
  -2.475  0.5138E+00  0.7077E+01
  -2.465  0.5117E+00  0.7082E+01
  -2.455  0.5097E+00  0.7087E+01
  -2.445  0.5076E+00  0.7092E+01
  -2.435  0.5056E+00  0.7097E+01
  -2.425  0.5035E+00  0.7102E+01
  -2.415  0.5015E+00  0.7107E+01
  -2.405  0.4994E+00  0.7112E+01
  -2.395  0.4973E+00  0.7117E+01
  -2.385  0.4953E+00  0.7122E+01
  -2.375  0.6151E+00  0.7127E+01
  -2.365  0.6075E+00  0.7133E+01
  -2.355  0.5999E+00  0.7140E+01
  -2.345  0.5923E+00  0.7145E+01
  -2.335  0.5847E+00  0.7151E+01
  -2.325  0.5771E+00  0.7157E+01
  -2.315  0.5695E+00  0.7163E+01
  -2.305  0.5619E+00  0.7169E+01
  -2.295  0.5543E+00  0.7174E+01
  -2.285  0.5467E+00  0.7180E+01
  -2.275  0.5391E+00  0.7185E+01
  -2.265  0.5315E+00  0.7190E+01
  -2.255  0.5239E+00  0.7196E+01
  -2.245  0.5163E+00  0.7201E+01
  -2.235  0.5087E+00  0.7206E+01
  -2.225  0.5011E+00  0.7211E+01
  -2.215  0.4935E+00  0.7216E+01
  -2.205  0.4859E+00  0.7221E+01
  -2.195  0.4783E+00  0.7226E+01
  -2.185  0.4707E+00  0.7231E+01
  -2.175  0.4637E+00  0.7235E+01
  -2.165  0.4569E+00  0.7240E+01
  -2.155  0.4501E+00  0.7244E+01
  -2.145  0.4433E+00  0.7249E+01
  -2.135  0.4364E+00  0.7253E+01
  -2.125  0.4296E+00  0.7258E+01
  -2.115  0.4228E+00  0.7262E+01
  -2.105  0.4160E+00  0.7266E+01
  -2.095  0.4092E+00  0.7270E+01
  -2.085  0.4024E+00  0.7274E+01
  -2.075  0.3956E+00  0.7278E+01
  -2.065  0.3888E+00  0.7282E+01
  -2.055  0.3820E+00  0.7286E+01
  -2.045  0.3751E+00  0.7290E+01
  -2.035  0.3683E+00  0.7293E+01
  -2.025  0.3615E+00  0.7297E+01
  -2.015  0.3621E+00  0.7301E+01
  -2.005  0.3635E+00  0.7304E+01
  -1.995  0.3649E+00  0.7308E+01
  -1.985  0.3663E+00  0.7312E+01
  -1.975  0.3677E+00  0.7315E+01
  -1.965  0.3691E+00  0.7319E+01
  -1.955  0.3705E+00  0.7323E+01
  -1.945  0.3719E+00  0.7326E+01
  -1.935  0.3733E+00  0.7330E+01
  -1.925  0.3747E+00  0.7334E+01
  -1.915  0.3761E+00  0.7338E+01
  -1.905  0.3775E+00  0.7341E+01
  -1.895  0.3789E+00  0.7345E+01
  -1.885  0.3803E+00  0.7349E+01
  -1.875  0.3817E+00  0.7353E+01
  -1.865  0.3831E+00  0.7357E+01
  -1.855  0.3845E+00  0.7360E+01
  -1.845  0.3859E+00  0.7364E+01
  -1.835  0.3873E+00  0.7368E+01
  -1.825  0.3887E+00  0.7372E+01
  -1.815  0.3901E+00  0.7376E+01
  -1.805  0.3915E+00  0.7380E+01
  -1.795  0.3929E+00  0.7384E+01
  -1.785  0.3943E+00  0.7388E+01
  -1.775  0.3957E+00  0.7392E+01
  -1.765  0.3971E+00  0.7396E+01
  -1.755  0.3985E+00  0.7400E+01
  -1.745  0.4000E+00  0.7404E+01
  -1.735  0.4017E+00  0.7408E+01
  -1.725  0.4035E+00  0.7412E+01
  -1.715  0.4053E+00  0.7416E+01
  -1.705  0.4071E+00  0.7420E+01
  -1.695  0.4088E+00  0.7424E+01
  -1.685  0.4106E+00  0.7428E+01
  -1.675  0.4124E+00  0.7432E+01
  -1.665  0.4142E+00  0.7436E+01
  -1.655  0.4159E+00  0.7440E+01
  -1.645  0.4203E+00  0.7444E+01
  -1.635  0.4248E+00  0.7449E+01
  -1.625  0.4293E+00  0.7453E+01
  -1.615  0.4338E+00  0.7457E+01
  -1.605  0.4383E+00  0.7462E+01
  -1.595  0.4428E+00  0.7466E+01
  -1.585  0.4473E+00  0.7471E+01
  -1.575  0.4518E+00  0.7475E+01
  -1.565  0.4563E+00  0.7480E+01
  -1.555  0.4608E+00  0.7484E+01
  -1.545  0.4654E+00  0.7489E+01
  -1.535  0.4699E+00  0.7493E+01
  -1.525  0.4744E+00  0.7498E+01
  -1.515  0.4789E+00  0.7503E+01
  -1.505  0.4834E+00  0.7508E+01
  -1.495  0.4879E+00  0.7513E+01
  -1.485  0.4924E+00  0.7517E+01
  -1.475  0.4969E+00  0.7522E+01
  -1.465  0.5014E+00  0.7527E+01
  -1.455  0.5059E+00  0.7532E+01
  -1.445  0.5104E+00  0.7538E+01
  -1.435  0.5149E+00  0.7543E+01
  -1.425  0.1293E+01  0.7554E+01
  -1.415  0.1211E+01  0.7566E+01
  -1.405  0.1130E+01  0.7578E+01
  -1.395  0.1048E+01  0.7589E+01
  -1.385  0.9657E+00  0.7599E+01
  -1.375  0.8838E+00  0.7608E+01
  -1.365  0.8019E+00  0.7617E+01
  -1.355  0.7200E+00  0.7624E+01
  -1.345  0.6381E+00  0.7631E+01
  -1.335  0.5562E+00  0.7637E+01
  -1.325  0.4742E+00  0.7642E+01
  -1.315  0.4030E+00  0.7647E+01
  -1.305  0.3996E+00  0.7651E+01
  -1.295  0.3961E+00  0.7655E+01
  -1.285  0.3927E+00  0.7658E+01
  -1.275  0.3893E+00  0.7662E+01
  -1.265  0.3859E+00  0.7666E+01
  -1.255  0.3825E+00  0.7670E+01
  -1.245  0.3790E+00  0.7674E+01
  -1.235  0.3756E+00  0.7678E+01
  -1.225  0.3722E+00  0.7681E+01
  -1.215  0.3688E+00  0.7685E+01
  -1.205  0.3653E+00  0.7689E+01
  -1.195  0.3619E+00  0.7692E+01
  -1.185  0.3585E+00  0.7696E+01
  -1.175  0.3551E+00  0.7700E+01
  -1.165  0.3517E+00  0.7703E+01
  -1.155  0.3482E+00  0.7707E+01
  -1.145  0.3448E+00  0.7710E+01
  -1.135  0.3414E+00  0.7714E+01
  -1.125  0.3380E+00  0.7717E+01
  -1.115  0.3346E+00  0.7720E+01
  -1.105  0.3311E+00  0.7724E+01
  -1.095  0.3277E+00  0.7727E+01
  -1.085  0.3243E+00  0.7730E+01
  -1.075  0.3209E+00  0.7733E+01
  -1.065  0.3174E+00  0.7737E+01
  -1.055  0.3140E+00  0.7740E+01
  -1.045  0.3106E+00  0.7743E+01
  -1.035  0.3072E+00  0.7746E+01
  -1.025  0.3038E+00  0.7749E+01
  -1.015  0.3003E+00  0.7752E+01
  -1.005  0.2969E+00  0.7755E+01
  -0.995  0.2935E+00  0.7758E+01
  -0.985  0.2901E+00  0.7761E+01
  -0.975  0.2867E+00  0.7764E+01
  -0.965  0.2832E+00  0.7767E+01
  -0.955  0.2798E+00  0.7769E+01
  -0.945  0.2764E+00  0.7772E+01
  -0.935  0.2730E+00  0.7775E+01
  -0.925  0.2695E+00  0.7778E+01
  -0.915  0.2661E+00  0.7780E+01
  -0.905  0.2627E+00  0.7783E+01
  -0.895  0.2593E+00  0.7786E+01
  -0.885  0.2559E+00  0.7788E+01
  -0.875  0.2524E+00  0.7791E+01
  -0.865  0.2490E+00  0.7793E+01
  -0.855  0.2456E+00  0.7796E+01
  -0.845  0.2422E+00  0.7798E+01
  -0.835  0.2388E+00  0.7801E+01
  -0.825  0.2353E+00  0.7803E+01
  -0.815  0.2319E+00  0.7805E+01
  -0.805  0.2285E+00  0.7808E+01
  -0.795  0.2251E+00  0.7810E+01
  -0.785  0.2216E+00  0.7812E+01
  -0.775  0.2182E+00  0.7814E+01
  -0.765  0.2148E+00  0.7816E+01
  -0.755  0.2114E+00  0.7819E+01
  -0.745  0.2080E+00  0.7821E+01
  -0.735  0.2049E+00  0.7823E+01
  -0.725  0.2065E+00  0.7825E+01
  -0.715  0.2081E+00  0.7827E+01
  -0.705  0.2097E+00  0.7829E+01
  -0.695  0.2113E+00  0.7831E+01
  -0.685  0.2130E+00  0.7833E+01
  -0.675  0.2146E+00  0.7835E+01
  -0.665  0.2162E+00  0.7837E+01
  -0.655  0.2178E+00  0.7840E+01
  -0.645  0.2194E+00  0.7842E+01
  -0.635  0.2210E+00  0.7844E+01
  -0.625  0.2226E+00  0.7846E+01
  -0.615  0.2242E+00  0.7848E+01
  -0.605  0.2258E+00  0.7851E+01
  -0.595  0.2275E+00  0.7853E+01
  -0.585  0.2291E+00  0.7855E+01
  -0.575  0.2307E+00  0.7858E+01
  -0.565  0.2323E+00  0.7860E+01
  -0.555  0.2339E+00  0.7862E+01
  -0.545  0.2355E+00  0.7865E+01
  -0.535  0.2371E+00  0.7867E+01
  -0.525  0.2387E+00  0.7869E+01
  -0.515  0.2404E+00  0.7872E+01
  -0.505  0.2420E+00  0.7874E+01
  -0.495  0.2436E+00  0.7877E+01
  -0.485  0.2452E+00  0.7879E+01
  -0.475  0.2468E+00  0.7881E+01
  -0.465  0.2484E+00  0.7884E+01
  -0.455  0.2500E+00  0.7886E+01
  -0.445  0.2516E+00  0.7889E+01
  -0.435  0.2532E+00  0.7891E+01
  -0.425  0.2549E+00  0.7894E+01
  -0.415  0.2565E+00  0.7897E+01
  -0.405  0.2581E+00  0.7899E+01
  -0.395  0.2597E+00  0.7902E+01
  -0.385  0.2613E+00  0.7904E+01
  -0.375  0.2629E+00  0.7907E+01
  -0.365  0.2645E+00  0.7910E+01
  -0.355  0.2661E+00  0.7912E+01
  -0.345  0.2677E+00  0.7915E+01
  -0.335  0.1193E+00  0.7917E+01
  -0.325  0.1185E+00  0.7918E+01
  -0.315  0.1176E+00  0.7919E+01
  -0.305  0.1168E+00  0.7921E+01
  -0.295  0.1159E+00  0.7922E+01
  -0.285  0.1150E+00  0.7923E+01
  -0.275  0.1142E+00  0.7924E+01
  -0.265  0.1133E+00  0.7925E+01
  -0.255  0.1125E+00  0.7926E+01
  -0.245  0.1116E+00  0.7927E+01
  -0.235  0.1108E+00  0.7929E+01
  -0.225  0.1099E+00  0.7930E+01
  -0.215  0.1090E+00  0.7931E+01
  -0.205  0.1082E+00  0.7932E+01
  -0.195  0.1073E+00  0.7933E+01
  -0.185  0.1065E+00  0.7934E+01
  -0.175  0.1056E+00  0.7935E+01
  -0.165  0.1047E+00  0.7936E+01
  -0.155  0.1039E+00  0.7937E+01
  -0.145  0.1030E+00  0.7938E+01
  -0.135  0.1022E+00  0.7939E+01
  -0.125  0.1013E+00  0.7940E+01
  -0.115  0.1004E+00  0.7941E+01
  -0.105  0.9959E-01  0.7942E+01
  -0.095  0.9873E-01  0.7943E+01
  -0.085  0.9787E-01  0.7944E+01
  -0.075  0.9702E-01  0.7945E+01
  -0.065  0.9616E-01  0.7946E+01
  -0.055  0.9530E-01  0.7947E+01
  -0.045  0.9444E-01  0.7948E+01
  -0.035  0.9358E-01  0.7949E+01
  -0.025  0.9272E-01  0.7950E+01
  -0.015  0.9186E-01  0.7951E+01
  -0.005  0.9101E-01  0.7952E+01
   0.005  0.9015E-01  0.7953E+01
   0.015  0.8929E-01  0.7954E+01
   0.025  0.8843E-01  0.7954E+01
   0.035  0.8757E-01  0.7955E+01
   0.045  0.8671E-01  0.7956E+01
   0.055  0.8585E-01  0.7957E+01
   0.065  0.8500E-01  0.7958E+01
   0.075  0.8414E-01  0.7959E+01
   0.085  0.8328E-01  0.7960E+01
   0.095  0.8242E-01  0.7960E+01
   0.105  0.8156E-01  0.7961E+01
   0.115  0.8070E-01  0.7962E+01
   0.125  0.7984E-01  0.7963E+01
   0.135  0.7898E-01  0.7964E+01
   0.145  0.7813E-01  0.7964E+01
   0.155  0.7727E-01  0.7965E+01
   0.165  0.7641E-01  0.7966E+01
   0.175  0.7555E-01  0.7967E+01
   0.185  0.7469E-01  0.7968E+01
   0.195  0.7383E-01  0.7968E+01
   0.205  0.7297E-01  0.7969E+01
   0.215  0.7212E-01  0.7970E+01
   0.225  0.7126E-01  0.7970E+01
   0.235  0.7040E-01  0.7971E+01
   0.245  0.6954E-01  0.7972E+01
   0.255  0.6868E-01  0.7973E+01
   0.265  0.6782E-01  0.7973E+01
   0.275  0.6696E-01  0.7974E+01
   0.285  0.6611E-01  0.7975E+01
   0.295  0.6525E-01  0.7975E+01
   0.305  0.6439E-01  0.7976E+01
   0.315  0.6353E-01  0.7976E+01
   0.325  0.6267E-01  0.7977E+01
   0.335  0.6181E-01  0.7978E+01
   0.345  0.6095E-01  0.7978E+01
   0.355  0.6010E-01  0.7979E+01
   0.365  0.5924E-01  0.7980E+01
   0.375  0.5838E-01  0.7980E+01
   0.385  0.5752E-01  0.7981E+01
   0.395  0.5666E-01  0.7981E+01
   0.405  0.5580E-01  0.7982E+01
   0.415  0.5494E-01  0.7982E+01
   0.425  0.5409E-01  0.7983E+01
   0.435  0.5323E-01  0.7984E+01
   0.445  0.5237E-01  0.7984E+01
   0.455  0.5151E-01  0.7985E+01
   0.465  0.5065E-01  0.7985E+01
   0.475  0.4979E-01  0.7986E+01
   0.485  0.4893E-01  0.7986E+01
   0.495  0.4808E-01  0.7987E+01
   0.505  0.4722E-01  0.7987E+01
   0.515  0.4636E-01  0.7987E+01
   0.525  0.4550E-01  0.7988E+01
   0.535  0.4464E-01  0.7988E+01
   0.545  0.4378E-01  0.7989E+01
   0.555  0.4292E-01  0.7989E+01
   0.565  0.4207E-01  0.7990E+01
   0.575  0.4121E-01  0.7990E+01
   0.585  0.4035E-01  0.7991E+01
   0.595  0.3949E-01  0.7991E+01
   0.605  0.3863E-01  0.7991E+01
   0.615  0.3777E-01  0.7992E+01
   0.625  0.3691E-01  0.7992E+01
   0.635  0.3605E-01  0.7992E+01
   0.645  0.3520E-01  0.7993E+01
   0.655  0.3434E-01  0.7993E+01
   0.665  0.3348E-01  0.7993E+01
   0.675  0.3262E-01  0.7994E+01
   0.685  0.3176E-01  0.7994E+01
   0.695  0.3090E-01  0.7994E+01
   0.705  0.3004E-01  0.7995E+01
   0.715  0.2919E-01  0.7995E+01
   0.725  0.2833E-01  0.7995E+01
   0.735  0.2747E-01  0.7996E+01
   0.745  0.2661E-01  0.7996E+01
   0.755  0.2575E-01  0.7996E+01
   0.765  0.2489E-01  0.7996E+01
   0.775  0.2403E-01  0.7997E+01
   0.785  0.2318E-01  0.7997E+01
   0.795  0.2232E-01  0.7997E+01
   0.805  0.2146E-01  0.7997E+01
   0.815  0.2060E-01  0.7998E+01
   0.825  0.1974E-01  0.7998E+01
   0.835  0.1888E-01  0.7998E+01
   0.845  0.1802E-01  0.7998E+01
   0.855  0.1717E-01  0.7998E+01
   0.865  0.1631E-01  0.7998E+01
   0.875  0.1545E-01  0.7999E+01
   0.885  0.1459E-01  0.7999E+01
   0.895  0.1373E-01  0.7999E+01
   0.905  0.1287E-01  0.7999E+01
   0.915  0.1201E-01  0.7999E+01
   0.925  0.1116E-01  0.7999E+01
   0.935  0.1030E-01  0.7999E+01
   0.945  0.9438E-02  0.7999E+01
   0.955  0.8580E-02  0.8000E+01
   0.965  0.7721E-02  0.8000E+01
   0.975  0.6863E-02  0.8000E+01
   0.985  0.6004E-02  0.8000E+01
   0.995  0.5145E-02  0.8000E+01
   1.005  0.4287E-02  0.8000E+01
   1.015  0.3428E-02  0.8000E+01
   1.025  0.2570E-02  0.8000E+01
   1.035  0.1711E-02  0.8000E+01
   1.045  0.8524E-03  0.8000E+01
   1.055  0.7128E-05  0.8000E+01
   1.065  0.1009E-02  0.8000E+01
   1.075  0.2011E-02  0.8000E+01
   1.085  0.3013E-02  0.8000E+01
   1.095  0.4015E-02  0.8000E+01
   1.105  0.5017E-02  0.8000E+01
   1.115  0.6019E-02  0.8000E+01
   1.125  0.7021E-02  0.8000E+01
   1.135  0.8023E-02  0.8000E+01
   1.145  0.9025E-02  0.8000E+01
   1.155  0.1003E-01  0.8001E+01
   1.165  0.1103E-01  0.8001E+01
   1.175  0.1203E-01  0.8001E+01
   1.185  0.1303E-01  0.8001E+01
   1.195  0.1403E-01  0.8001E+01
   1.205  0.1504E-01  0.8001E+01
   1.215  0.1604E-01  0.8001E+01
   1.225  0.1704E-01  0.8001E+01
   1.235  0.1804E-01  0.8002E+01
   1.245  0.1904E-01  0.8002E+01
   1.255  0.2005E-01  0.8002E+01
   1.265  0.2105E-01  0.8002E+01
   1.275  0.2205E-01  0.8002E+01
   1.285  0.2305E-01  0.8003E+01
   1.295  0.2405E-01  0.8003E+01
   1.305  0.2506E-01  0.8003E+01
   1.315  0.2606E-01  0.8003E+01
   1.325  0.2706E-01  0.8004E+01
   1.335  0.2806E-01  0.8004E+01
   1.345  0.2906E-01  0.8004E+01
   1.355  0.3007E-01  0.8005E+01
   1.365  0.3107E-01  0.8005E+01
   1.375  0.3207E-01  0.8005E+01
   1.385  0.3307E-01  0.8005E+01
   1.395  0.3407E-01  0.8006E+01
   1.405  0.3508E-01  0.8006E+01
   1.415  0.3608E-01  0.8006E+01
   1.425  0.3708E-01  0.8007E+01
   1.435  0.3808E-01  0.8007E+01
   1.445  0.3908E-01  0.8008E+01
   1.455  0.4009E-01  0.8008E+01
   1.465  0.4109E-01  0.8008E+01
   1.475  0.4209E-01  0.8009E+01
   1.485  0.4309E-01  0.8009E+01
   1.495  0.4409E-01  0.8010E+01
   1.505  0.4510E-01  0.8010E+01
   1.515  0.4610E-01  0.8011E+01
   1.525  0.4710E-01  0.8011E+01
   1.535  0.4810E-01  0.8012E+01
   1.545  0.4910E-01  0.8012E+01
   1.555  0.5011E-01  0.8013E+01
   1.565  0.5111E-01  0.8013E+01
   1.575  0.5211E-01  0.8014E+01
   1.585  0.5311E-01  0.8014E+01
   1.595  0.5411E-01  0.8015E+01
   1.605  0.5512E-01  0.8015E+01
   1.615  0.5612E-01  0.8016E+01
   1.625  0.5712E-01  0.8016E+01
   1.635  0.5812E-01  0.8017E+01
   1.645  0.5912E-01  0.8017E+01
   1.655  0.6013E-01  0.8018E+01
   1.665  0.6113E-01  0.8019E+01
   1.675  0.6213E-01  0.8019E+01
   1.685  0.6313E-01  0.8020E+01
   1.695  0.6413E-01  0.8021E+01
   1.705  0.6514E-01  0.8021E+01
   1.715  0.6614E-01  0.8022E+01
   1.725  0.6714E-01  0.8022E+01
   1.735  0.6814E-01  0.8023E+01
   1.745  0.6914E-01  0.8024E+01
   1.755  0.7015E-01  0.8025E+01
   1.765  0.7115E-01  0.8025E+01
   1.775  0.7215E-01  0.8026E+01
   1.785  0.7315E-01  0.8027E+01
   1.795  0.7415E-01  0.8027E+01
   1.805  0.7516E-01  0.8028E+01
   1.815  0.7616E-01  0.8029E+01
   1.825  0.7716E-01  0.8030E+01
   1.835  0.7816E-01  0.8030E+01
   1.845  0.7916E-01  0.8031E+01
   1.855  0.8017E-01  0.8032E+01
   1.865  0.8117E-01  0.8033E+01
   1.875  0.8217E-01  0.8034E+01
   1.885  0.8317E-01  0.8035E+01
   1.895  0.8417E-01  0.8035E+01
   1.905  0.8518E-01  0.8036E+01
   1.915  0.8618E-01  0.8037E+01
   1.925  0.8718E-01  0.8038E+01
   1.935  0.8818E-01  0.8039E+01
   1.945  0.8918E-01  0.8040E+01
   1.955  0.9018E-01  0.8041E+01
   1.965  0.9119E-01  0.8041E+01
   1.975  0.9219E-01  0.8042E+01
   1.985  0.9319E-01  0.8043E+01
   1.995  0.9419E-01  0.8044E+01
   2.005  0.9519E-01  0.8045E+01
   2.015  0.9620E-01  0.8046E+01
   2.025  0.9720E-01  0.8047E+01
   2.035  0.9820E-01  0.8048E+01
   2.045  0.9920E-01  0.8049E+01
   2.055  0.1002E+00  0.8050E+01
   2.065  0.1012E+00  0.8051E+01
   2.075  0.1022E+00  0.8052E+01
   2.085  0.1032E+00  0.8053E+01
   2.095  0.1042E+00  0.8054E+01
   2.105  0.1052E+00  0.8055E+01
   2.115  0.1062E+00  0.8056E+01
   2.125  0.1072E+00  0.8057E+01
   2.135  0.1082E+00  0.8058E+01
   2.145  0.1092E+00  0.8060E+01
   2.155  0.1102E+00  0.8061E+01
   2.165  0.1112E+00  0.8062E+01
   2.175  0.1122E+00  0.8063E+01
   2.185  0.1132E+00  0.8064E+01
   2.195  0.1142E+00  0.8065E+01
   2.205  0.1152E+00  0.8066E+01
   2.215  0.1162E+00  0.8067E+01
   2.225  0.1172E+00  0.8069E+01
   2.235  0.1182E+00  0.8070E+01
   2.245  0.1192E+00  0.8071E+01
   2.255  0.1202E+00  0.8072E+01
   2.265  0.1212E+00  0.8073E+01
   2.275  0.1222E+00  0.8075E+01
   2.285  0.1233E+00  0.8076E+01
   2.295  0.1243E+00  0.8077E+01
   2.305  0.1253E+00  0.8078E+01
   2.315  0.1263E+00  0.8080E+01
   2.325  0.1273E+00  0.8081E+01
   2.335  0.1283E+00  0.8082E+01
   2.345  0.6557E+00  0.8084E+01
   2.355  0.6225E+00  0.8090E+01
   2.365  0.5892E+00  0.8096E+01
   2.375  0.5559E+00  0.8102E+01
   2.385  0.5226E+00  0.8107E+01
   2.395  0.4894E+00  0.8112E+01
   2.405  0.4561E+00  0.8117E+01
   2.415  0.4228E+00  0.8121E+01
   2.425  0.3896E+00  0.8125E+01
   2.435  0.3563E+00  0.8129E+01
   2.445  0.3230E+00  0.8133E+01
   2.455  0.2898E+00  0.8136E+01
   2.465  0.2565E+00  0.8138E+01
   2.475  0.2232E+00  0.8141E+01
   2.485  0.1985E+00  0.8143E+01
   2.495  0.2038E+00  0.8145E+01
   2.505  0.2092E+00  0.8147E+01
   2.515  0.2145E+00  0.8149E+01
   2.525  0.2199E+00  0.8151E+01
   2.535  0.2252E+00  0.8153E+01
   2.545  0.2306E+00  0.8156E+01
   2.555  0.2359E+00  0.8158E+01
   2.565  0.2413E+00  0.8160E+01
   2.575  0.2466E+00  0.8163E+01
   2.585  0.2520E+00  0.8165E+01
   2.595  0.2573E+00  0.8168E+01
   2.605  0.2627E+00  0.8170E+01
   2.615  0.2680E+00  0.8173E+01
   2.625  0.2734E+00  0.8176E+01
   2.635  0.2787E+00  0.8179E+01
   2.645  0.2841E+00  0.8181E+01
   2.655  0.2894E+00  0.8184E+01
   2.665  0.2948E+00  0.8187E+01
   2.675  0.3001E+00  0.8190E+01
   2.685  0.3055E+00  0.8193E+01
   2.695  0.3108E+00  0.8196E+01
   2.705  0.3162E+00  0.8199E+01
   2.715  0.3215E+00  0.8203E+01
   2.725  0.3269E+00  0.8206E+01
   2.735  0.3411E+00  0.8209E+01
   2.745  0.3634E+00  0.8213E+01
   2.755  0.3856E+00  0.8216E+01
   2.765  0.4079E+00  0.8220E+01
   2.775  0.4302E+00  0.8225E+01
   2.785  0.4525E+00  0.8229E+01
   2.795  0.4747E+00  0.8234E+01
   2.805  0.4970E+00  0.8238E+01
   2.815  0.5193E+00  0.8244E+01
   2.825  0.5415E+00  0.8249E+01
   2.835  0.5638E+00  0.8254E+01
   2.845  0.5861E+00  0.8260E+01
   2.855  0.6084E+00  0.8266E+01
   2.865  0.6306E+00  0.8272E+01
   2.875  0.6529E+00  0.8279E+01
   2.885  0.6752E+00  0.8285E+01
   2.895  0.6974E+00  0.8292E+01
   2.905  0.7197E+00  0.8299E+01
   2.915  0.7420E+00  0.8307E+01
   2.925  0.7643E+00  0.8314E+01
   2.935  0.7865E+00  0.8322E+01
   2.945  0.8088E+00  0.8330E+01
   2.955  0.8311E+00  0.8338E+01
   2.965  0.8533E+00  0.8346E+01
   2.975  0.8756E+00  0.8355E+01
   2.985  0.8979E+00  0.8364E+01
   2.995  0.9202E+00  0.8373E+01
   3.005  0.4632E+00  0.8380E+01
   3.015  0.4607E+00  0.8385E+01
   3.025  0.4581E+00  0.8390E+01
   3.035  0.4556E+00  0.8394E+01
   3.045  0.4531E+00  0.8399E+01
   3.055  0.4506E+00  0.8403E+01
   3.065  0.4481E+00  0.8408E+01
   3.075  0.4456E+00  0.8412E+01
   3.085  0.4430E+00  0.8417E+01
   3.095  0.4405E+00  0.8421E+01
   3.105  0.4380E+00  0.8425E+01
   3.115  0.4355E+00  0.8430E+01
   3.125  0.4330E+00  0.8434E+01
   3.135  0.4305E+00  0.8438E+01
   3.145  0.4280E+00  0.8443E+01
   3.155  0.4254E+00  0.8447E+01
   3.165  0.4229E+00  0.8451E+01
   3.175  0.4204E+00  0.8455E+01
   3.185  0.4179E+00  0.8460E+01
   3.195  0.4154E+00  0.8464E+01
   3.205  0.4129E+00  0.8468E+01
   3.215  0.4103E+00  0.8472E+01
   3.225  0.4078E+00  0.8476E+01
   3.235  0.4053E+00  0.8480E+01
   3.245  0.4028E+00  0.8484E+01
   3.255  0.4003E+00  0.8488E+01
   3.265  0.3978E+00  0.8492E+01
   3.275  0.3952E+00  0.8496E+01
   3.285  0.3927E+00  0.8500E+01
   3.295  0.3902E+00  0.8504E+01
   3.305  0.3877E+00  0.8508E+01
   3.315  0.3852E+00  0.8512E+01
   3.325  0.3827E+00  0.8516E+01
   3.335  0.3801E+00  0.8520E+01
   3.345  0.3776E+00  0.8523E+01
   3.355  0.3751E+00  0.8527E+01
   3.365  0.3726E+00  0.8531E+01
   3.375  0.3701E+00  0.8535E+01
   3.385  0.3676E+00  0.8538E+01
   3.395  0.3650E+00  0.8542E+01
   3.405  0.3625E+00  0.8546E+01
   3.415  0.3600E+00  0.8549E+01
   3.425  0.3575E+00  0.8553E+01
   3.435  0.3550E+00  0.8556E+01
   3.445  0.3525E+00  0.8560E+01
   3.455  0.3499E+00  0.8563E+01
   3.465  0.3474E+00  0.8567E+01
   3.475  0.3449E+00  0.8570E+01
   3.485  0.3424E+00  0.8574E+01
   3.495  0.3476E+00  0.8577E+01
   3.505  0.3615E+00  0.8581E+01
   3.515  0.3755E+00  0.8584E+01
   3.525  0.3894E+00  0.8588E+01
   3.535  0.4033E+00  0.8592E+01
   3.545  0.4173E+00  0.8596E+01
   3.555  0.4312E+00  0.8600E+01
   3.565  0.4451E+00  0.8605E+01
   3.575  0.4596E+00  0.8609E+01
   3.585  0.4742E+00  0.8614E+01
   3.595  0.4889E+00  0.8619E+01
   3.605  0.5035E+00  0.8624E+01
   3.615  0.5181E+00  0.8629E+01
   3.625  0.5327E+00  0.8634E+01
   3.635  0.5474E+00  0.8640E+01
   3.645  0.5620E+00  0.8645E+01
   3.655  0.5766E+00  0.8651E+01
   3.665  0.5912E+00  0.8657E+01
   3.675  0.6059E+00  0.8663E+01
   3.685  0.6205E+00  0.8669E+01
   3.695  0.6351E+00  0.8675E+01
   3.705  0.6497E+00  0.8682E+01
   3.715  0.6644E+00  0.8688E+01
   3.725  0.4793E+00  0.8693E+01
   3.735  0.4789E+00  0.8698E+01
   3.745  0.4784E+00  0.8703E+01
   3.755  0.4780E+00  0.8707E+01
   3.765  0.4775E+00  0.8712E+01
   3.775  0.4771E+00  0.8717E+01
   3.785  0.4766E+00  0.8722E+01
   3.795  0.4762E+00  0.8726E+01
   3.805  0.4757E+00  0.8731E+01
   3.815  0.4753E+00  0.8736E+01
   3.825  0.4748E+00  0.8741E+01
   3.835  0.4744E+00  0.8745E+01
   3.845  0.4745E+00  0.8750E+01
   3.855  0.4746E+00  0.8755E+01
   3.865  0.4747E+00  0.8760E+01
   3.875  0.4748E+00  0.8764E+01
   3.885  0.4749E+00  0.8769E+01
   3.895  0.4750E+00  0.8774E+01
   3.905  0.4756E+00  0.8779E+01
   3.915  0.4766E+00  0.8783E+01
   3.925  0.4775E+00  0.8788E+01
   3.935  0.4785E+00  0.8793E+01
   3.945  0.4794E+00  0.8798E+01
   3.955  0.4804E+00  0.8803E+01
   3.965  0.4813E+00  0.8807E+01
   3.975  0.4823E+00  0.8812E+01
   3.985  0.4832E+00  0.8817E+01
   3.995  0.4842E+00  0.8822E+01
   4.005  0.4851E+00  0.8827E+01
   4.015  0.4860E+00  0.8832E+01
   4.025  0.4870E+00  0.8836E+01
   4.035  0.4879E+00  0.8841E+01
   4.045  0.4889E+00  0.8846E+01
   4.055  0.4898E+00  0.8851E+01
   4.065  0.4908E+00  0.8856E+01
   4.075  0.4917E+00  0.8861E+01
   4.085  0.4927E+00  0.8866E+01
   4.095  0.4936E+00  0.8871E+01
   4.105  0.4946E+00  0.8876E+01
   4.115  0.4955E+00  0.8881E+01
   4.125  0.4965E+00  0.8886E+01
   4.135  0.4974E+00  0.8891E+01
   4.145  0.4984E+00  0.8896E+01
   4.155  0.4993E+00  0.8900E+01
   4.165  0.5003E+00  0.8905E+01
   4.175  0.4983E+00  0.8910E+01
   4.185  0.4962E+00  0.8915E+01
   4.195  0.4941E+00  0.8920E+01
   4.205  0.4919E+00  0.8925E+01
   4.215  0.4898E+00  0.8930E+01
   4.225  0.4877E+00  0.8935E+01
   4.235  0.4855E+00  0.8940E+01
   4.245  0.4834E+00  0.8945E+01
   4.255  0.4813E+00  0.8950E+01
   4.265  0.4791E+00  0.8954E+01
   4.275  0.4770E+00  0.8959E+01
   4.285  0.4749E+00  0.8964E+01
   4.295  0.4727E+00  0.8969E+01
   4.305  0.4706E+00  0.8973E+01
   4.315  0.4685E+00  0.8978E+01
   4.325  0.4663E+00  0.8983E+01
   4.335  0.4642E+00  0.8987E+01
   4.345  0.4621E+00  0.8992E+01
   4.355  0.4599E+00  0.8997E+01
   4.365  0.4578E+00  0.9001E+01
   4.375  0.4557E+00  0.9006E+01
   4.385  0.4535E+00  0.9010E+01
   4.395  0.4524E+00  0.9015E+01
   4.405  0.4525E+00  0.9019E+01
   4.415  0.4526E+00  0.9024E+01
   4.425  0.4526E+00  0.9029E+01
   4.435  0.4527E+00  0.9033E+01
   4.445  0.4527E+00  0.9038E+01
   4.455  0.4528E+00  0.9042E+01
   4.465  0.4528E+00  0.9047E+01
   4.475  0.4529E+00  0.9051E+01
   4.485  0.4529E+00  0.9056E+01
   4.495  0.4530E+00  0.9060E+01
   4.505  0.4530E+00  0.9065E+01
   4.515  0.4531E+00  0.9069E+01
   4.525  0.4531E+00  0.9074E+01
   4.535  0.4532E+00  0.9078E+01
   4.545  0.4532E+00  0.9083E+01
   4.555  0.4533E+00  0.9087E+01
   4.565  0.4534E+00  0.9092E+01
   4.575  0.4534E+00  0.9096E+01
   4.585  0.4535E+00  0.9101E+01
   4.595  0.4535E+00  0.9106E+01
   4.605  0.4536E+00  0.9110E+01
   4.615  0.4536E+00  0.9115E+01
   4.625  0.4537E+00  0.9119E+01
   4.635  0.4537E+00  0.9124E+01
   4.645  0.4538E+00  0.9128E+01
   4.655  0.4538E+00  0.9133E+01
   4.665  0.4539E+00  0.9137E+01
   4.675  0.4539E+00  0.9142E+01
   4.685  0.4540E+00  0.9146E+01
   4.695  0.4540E+00  0.9151E+01
   4.705  0.4541E+00  0.9155E+01
   4.715  0.4542E+00  0.9160E+01
   4.725  0.4542E+00  0.9165E+01
   4.735  0.4543E+00  0.9169E+01
   4.745  0.4543E+00  0.9174E+01
   4.755  0.4544E+00  0.9178E+01
   4.765  0.4544E+00  0.9183E+01
   4.775  0.4545E+00  0.9187E+01
   4.785  0.4545E+00  0.9192E+01
   4.795  0.4546E+00  0.9196E+01
   4.805  0.4546E+00  0.9201E+01
   4.815  0.4550E+00  0.9205E+01
   4.825  0.4558E+00  0.9210E+01
   4.835  0.4566E+00  0.9215E+01
   4.845  0.4574E+00  0.9219E+01
   4.855  0.4581E+00  0.9224E+01
   4.865  0.4589E+00  0.9228E+01
   4.875  0.4597E+00  0.9233E+01
   4.885  0.4605E+00  0.9238E+01
   4.895  0.4613E+00  0.9242E+01
   4.905  0.4621E+00  0.9247E+01
   4.915  0.4628E+00  0.9251E+01
   4.925  0.4636E+00  0.9256E+01
   4.935  0.4644E+00  0.9261E+01
   4.945  0.4652E+00  0.9265E+01
   4.955  0.4660E+00  0.9270E+01
   4.965  0.4668E+00  0.9275E+01
   4.975  0.4675E+00  0.9279E+01
   4.985  0.4683E+00  0.9284E+01
   4.995  0.4691E+00  0.9289E+01
   5.005  0.4699E+00  0.9293E+01
   5.015  0.4707E+00  0.9298E+01
   5.025  0.4714E+00  0.9303E+01
   5.035  0.4722E+00  0.9307E+01
   5.045  0.4730E+00  0.9312E+01
   5.055  0.4738E+00  0.9317E+01
   5.065  0.4560E+00  0.9322E+01
   5.075  0.4562E+00  0.9326E+01
   5.085  0.4564E+00  0.9331E+01
   5.095  0.4566E+00  0.9335E+01
   5.105  0.4568E+00  0.9340E+01
   5.115  0.4570E+00  0.9344E+01
   5.125  0.4572E+00  0.9349E+01
   5.135  0.4574E+00  0.9354E+01
   5.145  0.4576E+00  0.9358E+01
   5.155  0.4578E+00  0.9363E+01
   5.165  0.4580E+00  0.9367E+01
   5.175  0.4582E+00  0.9372E+01
   5.185  0.4584E+00  0.9377E+01
   5.195  0.4586E+00  0.9381E+01
   5.205  0.4588E+00  0.9386E+01
   5.215  0.4589E+00  0.9390E+01
   5.225  0.4591E+00  0.9395E+01
   5.235  0.4593E+00  0.9399E+01
   5.245  0.4595E+00  0.9404E+01
   5.255  0.4597E+00  0.9409E+01
   5.265  0.4599E+00  0.9413E+01
   5.275  0.4601E+00  0.9418E+01
   5.285  0.4603E+00  0.9422E+01
   5.295  0.4605E+00  0.9427E+01
   5.305  0.4607E+00  0.9432E+01
   5.315  0.4609E+00  0.9436E+01
   5.325  0.4611E+00  0.9441E+01
   5.335  0.4613E+00  0.9445E+01
   5.345  0.4615E+00  0.9450E+01
   5.355  0.4617E+00  0.9455E+01
   5.365  0.4619E+00  0.9459E+01
   5.375  0.4621E+00  0.9464E+01
   5.385  0.4623E+00  0.9469E+01
   5.395  0.4625E+00  0.9473E+01
   5.405  0.4627E+00  0.9478E+01
   5.415  0.4629E+00  0.9482E+01
   5.425  0.4631E+00  0.9487E+01
   5.435  0.4633E+00  0.9492E+01
   5.445  0.4635E+00  0.9496E+01
   5.455  0.4637E+00  0.9501E+01
   5.465  0.4639E+00  0.9506E+01
   5.475  0.4641E+00  0.9510E+01
   5.485  0.4643E+00  0.9515E+01
   5.495  0.4645E+00  0.9520E+01
   5.505  0.4647E+00  0.9524E+01
   5.515  0.4653E+00  0.9529E+01
   5.525  0.4684E+00  0.9534E+01
   5.535  0.4715E+00  0.9538E+01
   5.545  0.4746E+00  0.9543E+01
   5.555  0.4777E+00  0.9548E+01
   5.565  0.5623E+00  0.9553E+01
   5.575  0.5651E+00  0.9559E+01
   5.585  0.5679E+00  0.9565E+01
   5.595  0.5707E+00  0.9570E+01
   5.605  0.5735E+00  0.9576E+01
   5.615  0.5763E+00  0.9582E+01
   5.625  0.5791E+00  0.9587E+01
   5.635  0.5819E+00  0.9593E+01
   5.645  0.5847E+00  0.9599E+01
   5.655  0.5875E+00  0.9605E+01
   5.665  0.5904E+00  0.9611E+01
   5.675  0.5932E+00  0.9617E+01
   5.685  0.5960E+00  0.9623E+01
   5.695  0.5988E+00  0.9629E+01
   5.705  0.6016E+00  0.9635E+01
   5.715  0.6044E+00  0.9641E+01
   5.725  0.6072E+00  0.9647E+01
   5.735  0.6100E+00  0.9653E+01
   5.745  0.6128E+00  0.9659E+01
   5.755  0.6156E+00  0.9665E+01
   5.765  0.6184E+00  0.9671E+01
   5.775  0.6212E+00  0.9678E+01
   5.785  0.6240E+00  0.9684E+01
   5.795  0.6268E+00  0.9690E+01
   5.805  0.6296E+00  0.9696E+01
   5.815  0.6324E+00  0.9703E+01
   5.825  0.6352E+00  0.9709E+01
   5.835  0.6380E+00  0.9715E+01
   5.845  0.6408E+00  0.9722E+01
   5.855  0.6436E+00  0.9728E+01
   5.865  0.6464E+00  0.9735E+01
   5.875  0.6493E+00  0.9741E+01
   5.885  0.6521E+00  0.9748E+01
   5.895  0.6549E+00  0.9754E+01
   5.905  0.6577E+00  0.9761E+01
   5.915  0.6605E+00  0.9767E+01
   5.925  0.6633E+00  0.9774E+01
   5.935  0.6661E+00  0.9780E+01
   5.945  0.6689E+00  0.9787E+01
   5.955  0.6717E+00  0.9794E+01
   5.965  0.6745E+00  0.9801E+01
   5.975  0.6773E+00  0.9807E+01
   5.985  0.6801E+00  0.9814E+01
   5.995  0.6829E+00  0.9821E+01
   6.005  0.6857E+00  0.9828E+01
   6.015  0.6844E+00  0.9835E+01
   6.025  0.6759E+00  0.9841E+01
   6.035  0.6675E+00  0.9848E+01
   6.045  0.6590E+00  0.9855E+01
   6.055  0.6506E+00  0.9861E+01
   6.065  0.6422E+00  0.9868E+01
   6.075  0.6337E+00  0.9874E+01
   6.085  0.6253E+00  0.9880E+01
   6.095  0.6169E+00  0.9887E+01
   6.105  0.6084E+00  0.9893E+01
   6.115  0.6000E+00  0.9899E+01
   6.125  0.5916E+00  0.9905E+01
   6.135  0.5831E+00  0.9911E+01
   6.145  0.5747E+00  0.9916E+01
   6.155  0.5663E+00  0.9922E+01
   6.165  0.5578E+00  0.9928E+01
   6.175  0.5494E+00  0.9933E+01
   6.185  0.5410E+00  0.9939E+01
   6.195  0.5196E+00  0.9944E+01
   6.205  0.4955E+00  0.9949E+01
   6.215  0.4713E+00  0.9954E+01
   6.225  0.4471E+00  0.9959E+01
   6.235  0.4230E+00  0.9963E+01
   6.245  0.3988E+00  0.9967E+01
   6.255  0.3747E+00  0.9971E+01
   6.265  0.3505E+00  0.9975E+01
   6.275  0.3263E+00  0.9978E+01
   6.285  0.3022E+00  0.9981E+01
   6.295  0.2780E+00  0.9984E+01
   6.305  0.2538E+00  0.9987E+01
   6.315  0.2297E+00  0.9989E+01
   6.325  0.2055E+00  0.9991E+01
   6.335  0.1814E+00  0.9993E+01
   6.345  0.1572E+00  0.9995E+01
   6.355  0.1330E+00  0.9996E+01
   6.365  0.1089E+00  0.9998E+01
   6.375  0.8471E-01  0.9999E+01
   6.385  0.6055E-01  0.9999E+01
   6.395  0.3638E-01  0.1000E+02
   6.405  0.1222E-01  0.1000E+02
   6.415  0.0000E+00  0.1000E+02
   6.425  0.0000E+00  0.1000E+02
   6.435  0.0000E+00  0.1000E+02
   6.445  0.0000E+00  0.1000E+02
   6.455  0.0000E+00  0.1000E+02
   6.465  0.0000E+00  0.1000E+02
   6.475  0.0000E+00  0.1000E+02
   6.485  0.0000E+00  0.1000E+02
   6.495  0.0000E+00  0.1000E+02
   6.505  0.0000E+00  0.1000E+02
   6.515  0.0000E+00  0.1000E+02
   6.525  0.0000E+00  0.1000E+02
   6.535  0.0000E+00  0.1000E+02
   6.545  0.0000E+00  0.1000E+02
   6.555  0.0000E+00  0.1000E+02
   6.565  0.0000E+00  0.1000E+02
   6.575  0.0000E+00  0.1000E+02
   6.585  0.0000E+00  0.1000E+02
   6.595  0.0000E+00  0.1000E+02
   6.605  0.0000E+00  0.1000E+02
   6.615  0.0000E+00  0.1000E+02
   6.625  0.0000E+00  0.1000E+02
   6.635  0.0000E+00  0.1000E+02
   6.645  0.0000E+00  0.1000E+02
   6.655  0.0000E+00  0.1000E+02
   6.665  0.0000E+00  0.1000E+02
   6.675  0.0000E+00  0.1000E+02
   6.685  0.0000E+00  0.1000E+02
   6.695  0.0000E+00  0.1000E+02
   6.705  0.0000E+00  0.1000E+02
   6.715  0.0000E+00  0.1000E+02
   6.725  0.0000E+00  0.1000E+02
   6.735  0.0000E+00  0.1000E+02
   6.745  0.0000E+00  0.1000E+02
   6.755  0.0000E+00  0.1000E+02
   6.765  0.0000E+00  0.1000E+02
   6.775  0.0000E+00  0.1000E+02
   6.785  0.0000E+00  0.1000E+02
   6.795  0.0000E+00  0.1000E+02
   6.805  0.0000E+00  0.1000E+02
   6.815  0.0000E+00  0.1000E+02
   6.825  0.0000E+00  0.1000E+02
   6.835  0.0000E+00  0.1000E+02
   6.845  0.0000E+00  0.1000E+02
   6.855  0.0000E+00  0.1000E+02
   6.865  0.0000E+00  0.1000E+02
   6.875  0.0000E+00  0.1000E+02
   6.885  0.0000E+00  0.1000E+02
   6.895  0.0000E+00  0.1000E+02
   6.905  0.0000E+00  0.1000E+02
   6.915  0.0000E+00  0.1000E+02
   6.925  0.0000E+00  0.1000E+02
   6.935  0.0000E+00  0.1000E+02
   6.945  0.0000E+00  0.1000E+02
   6.955  0.0000E+00  0.1000E+02
   6.965  0.0000E+00  0.1000E+02
   6.975  0.0000E+00  0.1000E+02
   6.985  0.0000E+00  0.1000E+02
   6.995  0.0000E+00  0.1000E+02
   7.005  0.0000E+00  0.1000E+02
   7.015  0.0000E+00  0.1000E+02
   7.025  0.0000E+00  0.1000E+02
   7.035  0.0000E+00  0.1000E+02
   7.045  0.5872E-02  0.1000E+02
   7.055  0.2522E-01  0.1000E+02
   7.065  0.4457E-01  0.1000E+02
   7.075  0.6391E-01  0.1000E+02
   7.085  0.1238E+00  0.1000E+02
   7.095  0.2252E+00  0.1000E+02
   7.105  0.3266E+00  0.1001E+02
   7.115  0.4280E+00  0.1001E+02
   7.125  0.4596E+00  0.1001E+02
   7.135  0.4899E+00  0.1002E+02
   7.145  0.5202E+00  0.1002E+02
   7.155  0.5505E+00  0.1003E+02
   7.165  0.5808E+00  0.1004E+02
   7.175  0.6112E+00  0.1004E+02
   7.185  0.6415E+00  0.1005E+02
   7.195  0.6718E+00  0.1005E+02
   7.205  0.7021E+00  0.1006E+02
   7.215  0.7324E+00  0.1007E+02
   7.225  0.7628E+00  0.1008E+02
   7.235  0.7931E+00  0.1008E+02
   7.245  0.8234E+00  0.1009E+02
   7.255  0.6397E+00  0.1010E+02
   7.265  0.6522E+00  0.1011E+02
   7.275  0.6647E+00  0.1011E+02
   7.285  0.6772E+00  0.1012E+02
   7.295  0.6897E+00  0.1013E+02
   7.305  0.7022E+00  0.1013E+02
   7.315  0.7147E+00  0.1014E+02
   7.325  0.7272E+00  0.1015E+02
   7.335  0.7396E+00  0.1015E+02
   7.345  0.7521E+00  0.1016E+02
   7.355  0.7646E+00  0.1017E+02
   7.365  0.7771E+00  0.1018E+02
   7.375  0.7896E+00  0.1018E+02
   7.385  0.8021E+00  0.1019E+02
   7.395  0.8146E+00  0.1020E+02
   7.405  0.8271E+00  0.1021E+02
   7.415  0.8396E+00  0.1022E+02
   7.425  0.8521E+00  0.1023E+02
   7.435  0.8646E+00  0.1023E+02
   7.445  0.8771E+00  0.1024E+02
   7.455  0.8896E+00  0.1025E+02
   7.465  0.9021E+00  0.1026E+02
   7.475  0.9145E+00  0.1027E+02
   7.485  0.9270E+00  0.1028E+02
   7.495  0.9395E+00  0.1029E+02
   7.505  0.9520E+00  0.1030E+02
   7.515  0.9645E+00  0.1031E+02
   7.525  0.9770E+00  0.1032E+02
   7.535  0.9895E+00  0.1033E+02
   7.545  0.1002E+01  0.1034E+02
   7.555  0.1014E+01  0.1035E+02
   7.565  0.1024E+01  0.1036E+02
   7.575  0.1035E+01  0.1037E+02
   7.585  0.1046E+01  0.1038E+02
   7.595  0.1057E+01  0.1039E+02
   7.605  0.1067E+01  0.1040E+02
   7.615  0.1078E+01  0.1041E+02
   7.625  0.1089E+01  0.1042E+02
   7.635  0.1099E+01  0.1043E+02
   7.645  0.1110E+01  0.1044E+02
   7.655  0.1121E+01  0.1045E+02
   7.665  0.1132E+01  0.1046E+02
   7.675  0.1141E+01  0.1048E+02
   7.685  0.1149E+01  0.1049E+02
   7.695  0.1157E+01  0.1050E+02
   7.705  0.1164E+01  0.1051E+02
   7.715  0.1172E+01  0.1052E+02
   7.725  0.1180E+01  0.1053E+02
   7.735  0.1187E+01  0.1055E+02
   7.745  0.1195E+01  0.1056E+02
   7.755  0.8354E+00  0.1057E+02
   7.765  0.8319E+00  0.1058E+02
   7.775  0.8283E+00  0.1059E+02
   7.785  0.8247E+00  0.1059E+02
   7.795  0.8212E+00  0.1060E+02
   7.805  0.8176E+00  0.1061E+02
   7.815  0.8141E+00  0.1062E+02
   7.825  0.8105E+00  0.1063E+02
   7.835  0.8069E+00  0.1063E+02
   7.845  0.8034E+00  0.1064E+02
   7.855  0.7998E+00  0.1065E+02
   7.865  0.7963E+00  0.1066E+02
   7.875  0.7927E+00  0.1067E+02
   7.885  0.7892E+00  0.1067E+02
   7.895  0.7904E+00  0.1068E+02
   7.905  0.7926E+00  0.1069E+02
   7.915  0.7949E+00  0.1070E+02
   7.925  0.7971E+00  0.1071E+02
   7.935  0.7993E+00  0.1071E+02
   7.945  0.8015E+00  0.1072E+02
   7.955  0.8038E+00  0.1073E+02
   7.965  0.8060E+00  0.1074E+02
   7.975  0.8082E+00  0.1075E+02
   7.985  0.8105E+00  0.1075E+02
   7.995  0.8127E+00  0.1076E+02
   8.005  0.8149E+00  0.1077E+02
   8.015  0.8171E+00  0.1078E+02
   8.025  0.8194E+00  0.1079E+02
   8.035  0.8216E+00  0.1080E+02
   8.045  0.8238E+00  0.1080E+02
   8.055  0.8261E+00  0.1081E+02
   8.065  0.8283E+00  0.1082E+02
   8.075  0.8305E+00  0.1083E+02
   8.085  0.8327E+00  0.1084E+02
   8.095  0.8350E+00  0.1085E+02
   8.105  0.8372E+00  0.1085E+02
   8.115  0.8394E+00  0.1086E+02
   8.125  0.8417E+00  0.1087E+02
   8.135  0.8439E+00  0.1088E+02
   8.145  0.8461E+00  0.1089E+02
   8.155  0.8483E+00  0.1090E+02
   8.165  0.8506E+00  0.1090E+02
   8.175  0.8731E+00  0.1091E+02
   8.185  0.8980E+00  0.1092E+02
   8.195  0.9228E+00  0.1093E+02
   8.205  0.9605E+00  0.1094E+02
   8.215  0.9993E+00  0.1095E+02
   8.225  0.1038E+01  0.1096E+02
   8.235  0.1077E+01  0.1097E+02
   8.245  0.1116E+01  0.1098E+02
   8.255  0.1155E+01  0.1099E+02
   8.265  0.1194E+01  0.1100E+02
   8.275  0.1195E+01  0.1102E+02
   8.285  0.1195E+01  0.1103E+02
   8.295  0.1195E+01  0.1104E+02
   8.305  0.1195E+01  0.1105E+02
   8.315  0.1195E+01  0.1106E+02
   8.325  0.1182E+01  0.1108E+02
   8.335  0.1154E+01  0.1109E+02
   8.345  0.1126E+01  0.1110E+02
   8.355  0.1098E+01  0.1111E+02
   8.365  0.1069E+01  0.1112E+02
   8.375  0.1041E+01  0.1113E+02
   8.385  0.1013E+01  0.1114E+02
   8.395  0.9849E+00  0.1115E+02
   8.405  0.9568E+00  0.1116E+02
   8.415  0.9286E+00  0.1117E+02
   8.425  0.9005E+00  0.1118E+02
   8.435  0.8723E+00  0.1119E+02
   8.445  0.8441E+00  0.1120E+02
   8.455  0.8160E+00  0.1121E+02
   8.465  0.7878E+00  0.1121E+02
   8.475  0.7597E+00  0.1122E+02
   8.485  0.7315E+00  0.1123E+02
   8.495  0.7033E+00  0.1124E+02
   8.505  0.4999E+00  0.1124E+02
   8.515  0.4961E+00  0.1125E+02
   8.525  0.4922E+00  0.1125E+02
   8.535  0.4884E+00  0.1126E+02
   8.545  0.4846E+00  0.1126E+02
   8.555  0.4807E+00  0.1127E+02
   8.565  0.4793E+00  0.1127E+02
   8.575  0.4877E+00  0.1128E+02
   8.585  0.4961E+00  0.1128E+02
   8.595  0.5045E+00  0.1129E+02
   8.605  0.5129E+00  0.1129E+02
   8.615  0.5213E+00  0.1130E+02
   8.625  0.5296E+00  0.1130E+02
   8.635  0.5380E+00  0.1131E+02
   8.645  0.5464E+00  0.1131E+02
   8.655  0.5548E+00  0.1132E+02
   8.665  0.5632E+00  0.1132E+02
   8.675  0.5716E+00  0.1133E+02
   8.685  0.5800E+00  0.1134E+02
   8.695  0.5884E+00  0.1134E+02
   8.705  0.5967E+00  0.1135E+02
   8.715  0.6051E+00  0.1135E+02
   8.725  0.6135E+00  0.1136E+02
   8.735  0.6219E+00  0.1137E+02
   8.745  0.6303E+00  0.1137E+02
   8.755  0.6387E+00  0.1138E+02
   8.765  0.6471E+00  0.1138E+02
   8.775  0.6554E+00  0.1139E+02
   8.785  0.6638E+00  0.1140E+02
   8.795  0.6722E+00  0.1140E+02
   8.805  0.6806E+00  0.1141E+02
   8.815  0.6890E+00  0.1142E+02
   8.825  0.6974E+00  0.1142E+02
   8.835  0.7058E+00  0.1143E+02
   8.845  0.7141E+00  0.1144E+02
   8.855  0.7225E+00  0.1145E+02
   8.865  0.7309E+00  0.1145E+02
   8.875  0.7393E+00  0.1146E+02
   8.885  0.7477E+00  0.1147E+02
   8.895  0.7561E+00  0.1148E+02
   8.905  0.7645E+00  0.1148E+02
   8.915  0.7728E+00  0.1149E+02
   8.925  0.7812E+00  0.1150E+02
   8.935  0.7896E+00  0.1151E+02
   8.945  0.7980E+00  0.1151E+02
   8.955  0.7447E+00  0.1152E+02
   8.965  0.7561E+00  0.1153E+02
   8.975  0.7676E+00  0.1154E+02
   8.985  0.7790E+00  0.1155E+02
   8.995  0.7904E+00  0.1155E+02
   9.005  0.8118E+00  0.1156E+02
   9.015  0.8442E+00  0.1157E+02
   9.025  0.8765E+00  0.1158E+02
   9.035  0.9088E+00  0.1159E+02
   9.045  0.9412E+00  0.1160E+02
   9.055  0.9735E+00  0.1161E+02
   9.065  0.1006E+01  0.1162E+02
   9.075  0.1066E+01  0.1163E+02
   9.085  0.1132E+01  0.1164E+02
   9.095  0.1198E+01  0.1165E+02
   9.105  0.1244E+01  0.1166E+02
   9.115  0.1278E+01  0.1167E+02
   9.125  0.1312E+01  0.1169E+02
   9.135  0.1345E+01  0.1170E+02
   9.145  0.1379E+01  0.1171E+02
   9.155  0.1413E+01  0.1173E+02
   9.165  0.1468E+01  0.1174E+02
   9.175  0.1525E+01  0.1176E+02
   9.185  0.1581E+01  0.1177E+02
   9.195  0.1637E+01  0.1179E+02
   9.205  0.1693E+01  0.1181E+02
   9.215  0.1750E+01  0.1182E+02
   9.225  0.1806E+01  0.1184E+02
   9.235  0.1862E+01  0.1186E+02
   9.245  0.1684E+01  0.1188E+02
   9.255  0.1769E+01  0.1189E+02
   9.265  0.1855E+01  0.1191E+02
   9.275  0.1941E+01  0.1193E+02
   9.285  0.2027E+01  0.1195E+02
   9.295  0.2113E+01  0.1197E+02
   9.305  0.2816E+01  0.1200E+02
   9.315  0.2881E+01  0.1203E+02
   9.325  0.2868E+01  0.1205E+02
   9.335  0.2822E+01  0.1208E+02
   9.345  0.2775E+01  0.1211E+02
   9.355  0.2729E+01  0.1214E+02
   9.365  0.2683E+01  0.1217E+02
   9.375  0.2637E+01  0.1219E+02
   9.385  0.2590E+01  0.1222E+02
   9.395  0.2544E+01  0.1224E+02
   9.405  0.2498E+01  0.1227E+02
   9.415  0.2451E+01  0.1229E+02
   9.425  0.2405E+01  0.1232E+02
   9.435  0.2359E+01  0.1234E+02
   9.445  0.2312E+01  0.1236E+02
   9.455  0.2266E+01  0.1239E+02
   9.465  0.2220E+01  0.1241E+02
   9.475  0.2174E+01  0.1243E+02
   9.485  0.2127E+01  0.1245E+02
   9.495  0.2081E+01  0.1247E+02
   9.505  0.2035E+01  0.1250E+02
   9.515  0.1912E+01  0.1252E+02
   9.525  0.1588E+01  0.1253E+02
   9.535  0.1278E+01  0.1255E+02
   9.545  0.1233E+01  0.1256E+02
   9.555  0.2141E+01  0.1257E+02
   9.565  0.4182E+01  0.1261E+02
   9.575  0.1317E+01  0.1264E+02
   9.585  0.1276E+01  0.1265E+02
   9.595  0.1236E+01  0.1266E+02
   9.605  0.1200E+01  0.1267E+02
   9.615  0.1211E+01  0.1269E+02
   9.625  0.1221E+01  0.1270E+02
   9.635  0.1231E+01  0.1271E+02
   9.645  0.1242E+01  0.1272E+02
   9.655  0.1252E+01  0.1274E+02
   9.665  0.1263E+01  0.1275E+02
   9.675  0.1273E+01  0.1276E+02
   9.685  0.1284E+01  0.1277E+02
   9.695  0.1294E+01  0.1279E+02
   9.705  0.1304E+01  0.1280E+02
   9.715  0.1315E+01  0.1281E+02
   9.725  0.1325E+01  0.1283E+02
   9.735  0.1336E+01  0.1284E+02
   9.745  0.1346E+01  0.1285E+02
   9.755  0.1357E+01  0.1287E+02
   9.765  0.1368E+01  0.1288E+02
   9.775  0.1379E+01  0.1289E+02
   9.785  0.1390E+01  0.1291E+02
   9.795  0.1401E+01  0.1292E+02
   9.805  0.1379E+01  0.1294E+02
   9.815  0.1345E+01  0.1295E+02
   9.825  0.2026E+01  0.1297E+02
   9.835  0.2048E+01  0.1299E+02
   9.845  0.2069E+01  0.1301E+02
   9.855  0.2091E+01  0.1303E+02
   9.865  0.2113E+01  0.1305E+02
   9.875  0.2134E+01  0.1307E+02
   9.885  0.2156E+01  0.1309E+02
   9.895  0.2178E+01  0.1311E+02
   9.905  0.2200E+01  0.1314E+02
   9.915  0.2221E+01  0.1316E+02
   9.925  0.2243E+01  0.1318E+02
   9.935  0.2265E+01  0.1320E+02
   9.945  0.2286E+01  0.1323E+02
   9.955  0.2308E+01  0.1325E+02
   9.965  0.1824E+01  0.1327E+02
   9.975  0.1328E+01  0.1329E+02
   9.985  0.8659E+00  0.1330E+02
   9.995  0.8648E+00  0.1330E+02
  10.005  0.8637E+00  0.1331E+02
  10.015  0.8626E+00  0.1332E+02
  10.025  0.8615E+00  0.1333E+02
  10.035  0.8604E+00  0.1334E+02
  10.045  0.8593E+00  0.1335E+02
  10.055  0.8582E+00  0.1336E+02
  10.065  0.8572E+00  0.1337E+02
  10.075  0.8561E+00  0.1337E+02
  10.085  0.8550E+00  0.1338E+02
  10.095  0.8539E+00  0.1339E+02
  10.105  0.8528E+00  0.1340E+02
  10.115  0.8517E+00  0.1341E+02
  10.125  0.8506E+00  0.1342E+02
  10.135  0.8495E+00  0.1342E+02
  10.145  0.8484E+00  0.1343E+02
  10.155  0.8473E+00  0.1344E+02
  10.165  0.8462E+00  0.1345E+02
  10.175  0.8451E+00  0.1346E+02
  10.185  0.8440E+00  0.1347E+02
  10.195  0.8429E+00  0.1348E+02
  10.205  0.8418E+00  0.1348E+02
  10.215  0.8407E+00  0.1349E+02
  10.225  0.8396E+00  0.1350E+02
  10.235  0.8385E+00  0.1351E+02
  10.245  0.8374E+00  0.1352E+02
  10.255  0.8363E+00  0.1353E+02
  10.265  0.8352E+00  0.1353E+02
  10.275  0.8341E+00  0.1354E+02
  10.285  0.8331E+00  0.1355E+02
  10.295  0.8320E+00  0.1356E+02
  10.305  0.8309E+00  0.1357E+02
  10.315  0.8298E+00  0.1358E+02
  10.325  0.8287E+00  0.1358E+02
  10.335  0.8276E+00  0.1359E+02
  10.345  0.8265E+00  0.1360E+02
  10.355  0.8254E+00  0.1361E+02
  10.365  0.8243E+00  0.1362E+02
  10.375  0.8232E+00  0.1363E+02
  10.385  0.8221E+00  0.1363E+02
  10.395  0.8210E+00  0.1364E+02
  10.405  0.8199E+00  0.1365E+02
  10.415  0.8188E+00  0.1366E+02
  10.425  0.9465E+00  0.1367E+02
  10.435  0.9436E+00  0.1368E+02
  10.445  0.9407E+00  0.1369E+02
  10.455  0.9378E+00  0.1370E+02
  10.465  0.9349E+00  0.1370E+02
  10.475  0.9321E+00  0.1371E+02
  10.485  0.9293E+00  0.1372E+02
  10.495  0.9265E+00  0.1373E+02
  10.505  0.9236E+00  0.1374E+02
  10.515  0.9208E+00  0.1375E+02
  10.525  0.9180E+00  0.1376E+02
  10.535  0.9152E+00  0.1377E+02
  10.545  0.9124E+00  0.1378E+02
  10.555  0.9096E+00  0.1379E+02
  10.565  0.9067E+00  0.1380E+02
  10.575  0.9039E+00  0.1381E+02
  10.585  0.9011E+00  0.1381E+02
  10.595  0.8983E+00  0.1382E+02
  10.605  0.8955E+00  0.1383E+02
  10.615  0.8927E+00  0.1384E+02
  10.625  0.8898E+00  0.1385E+02
  10.635  0.8870E+00  0.1386E+02
  10.645  0.8842E+00  0.1387E+02
  10.655  0.8814E+00  0.1388E+02
  10.665  0.8786E+00  0.1389E+02
  10.675  0.8758E+00  0.1389E+02
  10.685  0.8729E+00  0.1390E+02
  10.695  0.8701E+00  0.1391E+02
  10.705  0.8673E+00  0.1392E+02
  10.715  0.8645E+00  0.1393E+02
  10.725  0.8617E+00  0.1394E+02
  10.735  0.8589E+00  0.1395E+02
  10.745  0.8560E+00  0.1396E+02
  10.755  0.8532E+00  0.1396E+02
  10.765  0.8504E+00  0.1397E+02
  10.775  0.8476E+00  0.1398E+02
  10.785  0.8448E+00  0.1399E+02
  10.795  0.8420E+00  0.1400E+02
  10.805  0.8391E+00  0.1401E+02
  10.815  0.8363E+00  0.1401E+02
  10.825  0.8335E+00  0.1402E+02
  10.835  0.8307E+00  0.1403E+02
  10.845  0.8279E+00  0.1404E+02
  10.855  0.8251E+00  0.1405E+02
  10.865  0.8224E+00  0.1406E+02
  10.875  0.8506E+00  0.1406E+02
  10.885  0.8563E+00  0.1407E+02
  10.895  0.8620E+00  0.1408E+02
  10.905  0.8678E+00  0.1409E+02
  10.915  0.8735E+00  0.1410E+02
  10.925  0.8793E+00  0.1411E+02
  10.935  0.8850E+00  0.1412E+02
  10.945  0.8907E+00  0.1413E+02
  10.955  0.8965E+00  0.1413E+02
  10.965  0.9022E+00  0.1414E+02
  10.975  0.9042E+00  0.1415E+02
  10.985  0.9020E+00  0.1416E+02
  10.995  0.8998E+00  0.1417E+02
  11.005  0.8976E+00  0.1418E+02
  11.015  0.8953E+00  0.1419E+02
  11.025  0.8931E+00  0.1420E+02
  11.035  0.8958E+00  0.1421E+02
  11.045  0.9084E+00  0.1422E+02
  11.055  0.9209E+00  0.1422E+02
  11.065  0.9335E+00  0.1423E+02
  11.075  0.9461E+00  0.1424E+02
  11.085  0.9586E+00  0.1425E+02
  11.095  0.9712E+00  0.1426E+02
  11.105  0.9837E+00  0.1427E+02
  11.115  0.9963E+00  0.1428E+02
  11.125  0.1009E+01  0.1429E+02
  11.135  0.1021E+01  0.1430E+02
  11.145  0.1034E+01  0.1431E+02
  11.155  0.1047E+01  0.1432E+02
  11.165  0.1059E+01  0.1433E+02
  11.175  0.1072E+01  0.1434E+02
  11.185  0.1084E+01  0.1435E+02
  11.195  0.1097E+01  0.1437E+02
  11.205  0.1109E+01  0.1438E+02
  11.215  0.1122E+01  0.1439E+02
  11.225  0.1134E+01  0.1440E+02
  11.235  0.1147E+01  0.1441E+02
  11.245  0.7871E+00  0.1442E+02
  11.255  0.7894E+00  0.1443E+02
  11.265  0.7918E+00  0.1444E+02
  11.275  0.7941E+00  0.1444E+02
  11.285  0.7964E+00  0.1445E+02
  11.295  0.7987E+00  0.1446E+02
  11.305  0.8011E+00  0.1447E+02
  11.315  0.8034E+00  0.1448E+02
  11.325  0.8057E+00  0.1448E+02
  11.335  0.8081E+00  0.1449E+02
  11.345  0.8104E+00  0.1450E+02
  11.355  0.8127E+00  0.1451E+02
  11.365  0.8150E+00  0.1452E+02
  11.375  0.8174E+00  0.1452E+02
  11.385  0.8197E+00  0.1453E+02
  11.395  0.8220E+00  0.1454E+02
  11.405  0.8225E+00  0.1455E+02
  11.415  0.8204E+00  0.1456E+02
  11.425  0.8183E+00  0.1456E+02
  11.435  0.8162E+00  0.1457E+02
  11.445  0.8140E+00  0.1458E+02
  11.455  0.8119E+00  0.1459E+02
  11.465  0.8098E+00  0.1460E+02
  11.475  0.8082E+00  0.1461E+02
  11.485  0.8076E+00  0.1461E+02
  11.495  0.8069E+00  0.1462E+02
  11.505  0.8062E+00  0.1463E+02
  11.515  0.8055E+00  0.1464E+02
  11.525  0.8048E+00  0.1465E+02
  11.535  0.8041E+00  0.1465E+02
  11.545  0.8332E+00  0.1466E+02
  11.555  0.9016E+00  0.1467E+02
  11.565  0.9700E+00  0.1468E+02
  11.575  0.1038E+01  0.1469E+02
  11.585  0.1108E+01  0.1470E+02
  11.595  0.1179E+01  0.1471E+02
  11.605  0.1249E+01  0.1472E+02
  11.615  0.1320E+01  0.1474E+02
  11.625  0.1390E+01  0.1475E+02
  11.635  0.1461E+01  0.1476E+02
  11.645  0.1531E+01  0.1478E+02
  11.655  0.1602E+01  0.1480E+02
  11.665  0.1672E+01  0.1481E+02
  11.675  0.1743E+01  0.1483E+02
  11.685  0.1813E+01  0.1485E+02
  11.695  0.1884E+01  0.1487E+02
  11.705  0.6803E+00  0.1487E+02
  11.715  0.6817E+00  0.1488E+02
  11.725  0.6831E+00  0.1489E+02
  11.735  0.6845E+00  0.1489E+02
  11.745  0.6859E+00  0.1490E+02
  11.755  0.6873E+00  0.1491E+02
  11.765  0.6888E+00  0.1491E+02
  11.775  0.6902E+00  0.1492E+02
  11.785  0.6916E+00  0.1493E+02
  11.795  0.6930E+00  0.1493E+02
  11.805  0.6944E+00  0.1494E+02
  11.815  0.7155E+00  0.1495E+02
  11.825  0.7678E+00  0.1496E+02
  11.835  0.8201E+00  0.1496E+02
  11.845  0.8724E+00  0.1497E+02
  11.855  0.9247E+00  0.1498E+02
  11.865  0.9770E+00  0.1499E+02
  11.875  0.1029E+01  0.1500E+02
  11.885  0.1082E+01  0.1501E+02
  11.895  0.1134E+01  0.1502E+02
  11.905  0.1186E+01  0.1503E+02
  11.915  0.1239E+01  0.1505E+02
  11.925  0.1172E+01  0.1506E+02
  11.935  0.1128E+01  0.1507E+02
  11.945  0.1085E+01  0.1508E+02
  11.955  0.1042E+01  0.1509E+02
  11.965  0.9984E+00  0.1510E+02
  11.975  0.9551E+00  0.1511E+02
  11.985  0.9118E+00  0.1512E+02
  11.995  0.8685E+00  0.1513E+02
  12.005  0.8252E+00  0.1514E+02
  12.015  0.7819E+00  0.1515E+02
  12.025  0.7386E+00  0.1515E+02
  12.035  0.6953E+00  0.1516E+02
  12.045  0.6520E+00  0.1517E+02
  12.055  0.6087E+00  0.1517E+02
  12.065  0.5654E+00  0.1518E+02
  12.075  0.5221E+00  0.1519E+02
  12.085  0.4983E+00  0.1519E+02
  12.095  0.4997E+00  0.1520E+02
  12.105  0.5012E+00  0.1520E+02
  12.115  0.5026E+00  0.1521E+02
  12.125  0.5041E+00  0.1521E+02
  12.135  0.5055E+00  0.1522E+02
  12.145  0.5070E+00  0.1522E+02
  12.155  0.5084E+00  0.1523E+02
  12.165  0.5099E+00  0.1523E+02
  12.175  0.5113E+00  0.1524E+02
  12.185  0.5128E+00  0.1524E+02
  12.195  0.5142E+00  0.1525E+02
  12.205  0.5157E+00  0.1525E+02
  12.215  0.5792E+00  0.1526E+02
  12.225  0.7845E+00  0.1526E+02
  12.235  0.8898E+00  0.1527E+02
  12.245  0.8885E+00  0.1528E+02
  12.255  0.8873E+00  0.1529E+02
  12.265  0.8860E+00  0.1530E+02
  12.275  0.8848E+00  0.1531E+02
  12.285  0.8798E+00  0.1532E+02
  12.295  0.8739E+00  0.1533E+02
  12.305  0.8679E+00  0.1533E+02
  12.315  0.8620E+00  0.1534E+02
  12.325  0.8560E+00  0.1535E+02
  12.335  0.8500E+00  0.1536E+02
  12.345  0.8441E+00  0.1537E+02
  12.355  0.8381E+00  0.1538E+02
  12.365  0.8322E+00  0.1539E+02
  12.375  0.8262E+00  0.1539E+02
  12.385  0.8203E+00  0.1540E+02
  12.395  0.8143E+00  0.1541E+02
  12.405  0.8084E+00  0.1542E+02
  12.415  0.8024E+00  0.1543E+02
  12.425  0.7964E+00  0.1543E+02
  12.435  0.7905E+00  0.1544E+02
  12.445  0.7845E+00  0.1545E+02
  12.455  0.7786E+00  0.1546E+02
  12.465  0.7726E+00  0.1547E+02
  12.475  0.7667E+00  0.1547E+02
  12.485  0.7607E+00  0.1548E+02
  12.495  0.7548E+00  0.1549E+02
  12.505  0.7488E+00  0.1550E+02
  12.515  0.7428E+00  0.1550E+02
  12.525  0.7369E+00  0.1551E+02
  12.535  0.7309E+00  0.1552E+02
  12.545  0.7250E+00  0.1553E+02
  12.555  0.7190E+00  0.1553E+02
  12.565  0.7131E+00  0.1554E+02
  12.575  0.7071E+00  0.1555E+02
  12.585  0.7012E+00  0.1555E+02
  12.595  0.6952E+00  0.1556E+02
  12.605  0.6892E+00  0.1557E+02
  12.615  0.6833E+00  0.1557E+02
  12.625  0.6773E+00  0.1558E+02
  12.635  0.6714E+00  0.1559E+02
  12.645  0.6654E+00  0.1560E+02
  12.655  0.6595E+00  0.1560E+02
  12.665  0.6535E+00  0.1561E+02
  12.675  0.6476E+00  0.1561E+02
  12.685  0.6416E+00  0.1562E+02
  12.695  0.6356E+00  0.1563E+02
  12.705  0.6297E+00  0.1563E+02
  12.715  0.6237E+00  0.1564E+02
  12.725  0.6178E+00  0.1565E+02
  12.735  0.6118E+00  0.1565E+02
  12.745  0.6059E+00  0.1566E+02
  12.755  0.5999E+00  0.1566E+02
  12.765  0.5940E+00  0.1567E+02
  12.775  0.5880E+00  0.1568E+02
  12.785  0.5820E+00  0.1568E+02
  12.795  0.5761E+00  0.1569E+02
  12.805  0.5701E+00  0.1569E+02
  12.815  0.5642E+00  0.1570E+02
  12.825  0.5582E+00  0.1571E+02
  12.835  0.5523E+00  0.1571E+02
  12.845  0.5463E+00  0.1572E+02
  12.855  0.5404E+00  0.1572E+02
  12.865  0.5344E+00  0.1573E+02
  12.875  0.5284E+00  0.1573E+02
  12.885  0.5225E+00  0.1574E+02
  12.895  0.5165E+00  0.1574E+02
  12.905  0.5106E+00  0.1575E+02
  12.915  0.5046E+00  0.1575E+02
  12.925  0.4987E+00  0.1576E+02
  12.935  0.4927E+00  0.1576E+02
  12.945  0.4868E+00  0.1577E+02
  12.955  0.4808E+00  0.1577E+02
  12.965  0.4748E+00  0.1578E+02
  12.975  0.4689E+00  0.1578E+02
  12.985  0.4629E+00  0.1579E+02
  12.995  0.4570E+00  0.1579E+02
  13.005  0.4510E+00  0.1580E+02
  13.015  0.4451E+00  0.1580E+02
  13.025  0.2804E+00  0.1580E+02
  13.035  0.2796E+00  0.1581E+02
  13.045  0.2788E+00  0.1581E+02
  13.055  0.2780E+00  0.1581E+02
  13.065  0.2772E+00  0.1582E+02
  13.075  0.2764E+00  0.1582E+02
  13.085  0.2756E+00  0.1582E+02
  13.095  0.2748E+00  0.1582E+02
  13.105  0.2740E+00  0.1583E+02
  13.115  0.2733E+00  0.1583E+02
  13.125  0.2725E+00  0.1583E+02
  13.135  0.2717E+00  0.1583E+02
  13.145  0.2709E+00  0.1584E+02
  13.155  0.2701E+00  0.1584E+02
  13.165  0.2693E+00  0.1584E+02
  13.175  0.2685E+00  0.1585E+02
  13.185  0.2677E+00  0.1585E+02
  13.195  0.2669E+00  0.1585E+02
  13.205  0.2661E+00  0.1585E+02
  13.215  0.2654E+00  0.1586E+02
  13.225  0.2646E+00  0.1586E+02
  13.235  0.2638E+00  0.1586E+02
  13.245  0.1653E+01  0.1586E+02
  13.255  0.1487E+01  0.1588E+02
  13.265  0.1320E+01  0.1589E+02
  13.275  0.1154E+01  0.1591E+02
  13.285  0.9875E+00  0.1592E+02
  13.295  0.8210E+00  0.1593E+02
  13.305  0.6545E+00  0.1593E+02
  13.315  0.4880E+00  0.1594E+02
  13.325  0.3493E+00  0.1594E+02
  13.335  0.3385E+00  0.1595E+02
  13.345  0.3277E+00  0.1595E+02
  13.355  0.3169E+00  0.1595E+02
  13.365  0.3060E+00  0.1596E+02
  13.375  0.2952E+00  0.1596E+02
  13.385  0.2844E+00  0.1596E+02
  13.395  0.2736E+00  0.1597E+02
  13.405  0.2627E+00  0.1597E+02
  13.415  0.2519E+00  0.1597E+02
  13.425  0.2411E+00  0.1597E+02
  13.435  0.2302E+00  0.1598E+02
  13.445  0.2194E+00  0.1598E+02
  13.455  0.2086E+00  0.1598E+02
  13.465  0.1978E+00  0.1598E+02
  13.475  0.1869E+00  0.1598E+02
  13.485  0.1761E+00  0.1599E+02
  13.495  0.1653E+00  0.1599E+02
  13.505  0.1545E+00  0.1599E+02
  13.515  0.1436E+00  0.1599E+02
  13.525  0.1328E+00  0.1599E+02
  13.535  0.1220E+00  0.1599E+02
  13.545  0.1111E+00  0.1599E+02
  13.555  0.1003E+00  0.1600E+02
  13.565  0.8950E-01  0.1600E+02
  13.575  0.7867E-01  0.1600E+02
  13.585  0.6784E-01  0.1600E+02
  13.595  0.5701E-01  0.1600E+02
  13.605  0.4619E-01  0.1600E+02
  13.615  0.3536E-01  0.1600E+02
  13.625  0.2453E-01  0.1600E+02
  13.635  0.1371E-01  0.1600E+02
  13.645  0.2879E-02  0.1600E+02
